{
  "area": 136.752,
  "cell_footprint": "sky130_fd_sc_hvl__buf",
  "cell_leakage_power": 68.33965,
  "driver_waveform_fall": "ramp",
  "driver_waveform_rise": "ramp",
  "leakage_power": [
    {
      "value": 92.9104758,
      "when": "A"
    },
    {
      "value": 43.768825,
      "when": "!A"
    }
  ],
  "pg_pin,VGND": {
    "pg_type": "primary_ground",
    "related_bias_pin": "VPB",
    "voltage_name": "VGND"
  },
  "pg_pin,VNB": {
    "pg_type": "nwell",
    "physical_connection": "device_layer",
    "voltage_name": "VNB"
  },
  "pg_pin,VPB": {
    "pg_type": "pwell",
    "physical_connection": "device_layer",
    "voltage_name": "VPB"
  },
  "pg_pin,VPWR": {
    "pg_type": "primary_power",
    "related_bias_pin": "VNB",
    "voltage_name": "VPWR"
  },
  "pin,A": {
    "capacitance": 0.04471,
    "clock": "false",
    "direction": "input",
    "max_transition": 3.75,
    "related_ground_pin": "VGND",
    "related_power_pin": "VPWR"
  },
  "pin,X": {
    "direction": "output",
    "function": "(A)",
    "internal_power": {
      "fall_power,power_outputs_2": {
        "index_1": [
          0.001,
          0.013,
          0.026,
          0.072,
          0.216,
          0.432,
          0.864,
          1.296,
          2.5,
          3.125,
          3.75,
          4.5,
          5.5,
          6.75,
          8.5,
          10,
          12
        ],
        "index_2": [
          0,
          0.00715,
          0.01431,
          0.02861,
          0.05722,
          0.11445,
          0.22889,
          0.45779,
          0.91558,
          1.41558,
          1.91558,
          2.41558,
          2.91558,
          3.41558,
          3.91558,
          4.41558,
          4.91558,
          5.41558,
          5.91558,
          6.41558,
          6.91558,
          7.41558,
          7.91558,
          8.41558,
          8.91558,
          9.41558,
          9.91558,
          10.41558,
          11.41558,
          12.41558,
          13.41558,
          14.41558,
          15.41558,
          16.41558,
          17.41558,
          18.41558,
          19.41558,
          20.41558,
          21.91558,
          23.41558,
          24.91558,
          26.41558,
          27.91558,
          29.41558,
          30.91558,
          32.91558,
          34.91558,
          36.91558,
          38.91558,
          40.91558,
          43.41558,
          46.41558
        ],
        "values": [
          [
            6.040666,
            5.8786272,
            5.7174523,
            5.408454,
            4.8289543,
            3.7367415,
            1.768382,
            -1.8787296,
            -8.9492845,
            -16.584478,
            -24.1786435,
            -31.7659206,
            -39.3506288,
            -46.9278729,
            -54.4949942,
            -62.0658089,
            -69.6335966,
            -77.2019864,
            -84.769454,
            -92.335824,
            -99.9018708,
            -107.466701,
            -115.0328281,
            -122.5974018,
            -130.1662942,
            -137.7295365,
            -145.2933872,
            -152.8515493,
            -167.983142,
            -183.1105541,
            -198.2374819,
            -213.364007,
            -228.4909364,
            -243.623469,
            -258.7453186,
            -273.8610881,
            -288.9930134,
            -304.1188,
            -326.813759,
            -349.501139,
            -372.1904082,
            -394.8793429,
            -417.559617,
            -440.2474147,
            -462.929189,
            -493.1817389,
            -523.4404178,
            -553.6972222,
            -583.9482408,
            -614.1995477,
            -651.9883969,
            -697.3658308
          ],
          [
            6.0289867,
            5.8761066,
            5.7236362,
            5.4048617,
            4.8316685,
            3.745287,
            1.7790923,
            -1.8717065,
            -8.948481,
            -16.5805711,
            -24.1722502,
            -31.7580819,
            -39.3287552,
            -46.9174723,
            -54.4820957,
            -62.0644644,
            -69.6276156,
            -77.197422,
            -84.7635218,
            -92.3292696,
            -99.8948501,
            -107.4656687,
            -115.023526,
            -122.5914376,
            -130.1494475,
            -137.7232503,
            -145.2906821,
            -152.8444037,
            -167.9804364,
            -183.0828296,
            -198.2373848,
            -213.3622746,
            -228.4774601,
            -243.6004906,
            -258.7321075,
            -273.8568146,
            -288.988268,
            -304.1087284,
            -326.8203653,
            -349.4948966,
            -372.1829703,
            -394.8706888,
            -417.5585118,
            -440.2466639,
            -462.9346026,
            -493.1852352,
            -523.4355416,
            -553.6858975,
            -583.9363113,
            -614.186614,
            -651.9995629,
            -697.3749358
          ],
          [
            6.043284,
            5.8845276,
            5.7210329,
            5.4089217,
            4.8182488,
            3.7401092,
            1.7798364,
            -1.8766171,
            -8.953643,
            -16.5732982,
            -24.163751,
            -31.7609141,
            -39.3301166,
            -46.9157904,
            -54.490683,
            -62.066582,
            -69.6302674,
            -77.2079913,
            -84.7643765,
            -92.3324206,
            -99.892395,
            -107.4658771,
            -115.0263996,
            -122.5935482,
            -130.1573166,
            -137.720349,
            -145.2841623,
            -152.8489865,
            -167.978912,
            -183.1013007,
            -198.2205277,
            -213.3580545,
            -228.4779083,
            -243.5975202,
            -258.7409914,
            -273.8768003,
            -288.9903763,
            -304.1103122,
            -326.8065174,
            -349.4885142,
            -372.1732577,
            -394.8835633,
            -417.5754123,
            -440.2646786,
            -462.9201395,
            -493.1668109,
            -523.4206095,
            -553.6957781,
            -583.9393691,
            -614.189558,
            -652.0027259,
            -697.3603949
          ],
          [
            6.1240567,
            5.9718599,
            5.819436,
            5.5090323,
            4.9197114,
            3.8244499,
            1.8655696,
            -1.8100524,
            -8.8573192,
            -16.5250311,
            -24.1072993,
            -31.6938507,
            -39.2777941,
            -46.8441624,
            -54.4189788,
            -61.9896893,
            -69.5598982,
            -77.1274893,
            -84.6965886,
            -92.2564864,
            -99.8315373,
            -107.3996857,
            -114.9647238,
            -122.524039,
            -130.0799257,
            -137.6601522,
            -145.2225627,
            -152.7783916,
            -167.8971211,
            -183.0379247,
            -198.1453269,
            -213.2758645,
            -228.420247,
            -243.5449278,
            -258.6684705,
            -273.7935962,
            -288.9177765,
            -304.0476183,
            -326.7220639,
            -349.4107767,
            -372.1012886,
            -394.7881181,
            -417.4826823,
            -440.1776127,
            -462.8784283,
            -493.1322288,
            -523.378534,
            -553.630835,
            -583.8824711,
            -614.1054666,
            -651.9213532,
            -697.3007706
          ],
          [
            7.1773497,
            7.0096605,
            6.837236,
            6.537135,
            5.9288707,
            4.8014716,
            2.7564141,
            -0.9880745,
            -8.1517728,
            -15.8320497,
            -23.4592823,
            -31.0650871,
            -38.6591655,
            -46.2423042,
            -53.8184314,
            -61.3946528,
            -68.9733611,
            -76.5503768,
            -84.117933,
            -91.6730724,
            -99.2572049,
            -106.8278938,
            -114.3969223,
            -121.9608224,
            -129.5227601,
            -137.0854479,
            -144.650091,
            -152.2114162,
            -167.3386384,
            -182.4783188,
            -197.5998626,
            -212.7296061,
            -227.8592543,
            -242.9845596,
            -258.1119583,
            -273.2388293,
            -288.3653704,
            -303.4922962,
            -326.1828384,
            -348.8700557,
            -371.5579337,
            -394.2469539,
            -416.931002,
            -439.6263506,
            -462.3173937,
            -492.5713007,
            -522.8233235,
            -553.0774582,
            -583.3177731,
            -613.5646878,
            -651.3824667,
            -696.7516686
          ],
          [
            9.3411494,
            9.1664722,
            8.9826096,
            8.6501756,
            8.0164911,
            6.8313926,
            4.6689365,
            0.7202187,
            -6.6228735,
            -14.4152354,
            -22.1079094,
            -29.7575749,
            -37.380668,
            -44.9940678,
            -52.5953966,
            -60.1880493,
            -67.7716986,
            -75.3548531,
            -82.9355541,
            -90.5145326,
            -98.0930627,
            -105.6678644,
            -113.2336176,
            -120.8072668,
            -128.3766304,
            -135.9471421,
            -143.515353,
            -151.0821342,
            -166.217887,
            -181.3508258,
            -196.4846077,
            -211.6156831,
            -226.7446403,
            -241.8787673,
            -257.0036447,
            -272.1357907,
            -287.2590258,
            -302.391642,
            -325.0816897,
            -347.7747265,
            -370.4662753,
            -393.1560148,
            -415.8473373,
            -438.5334666,
            -461.2224825,
            -491.4788114,
            -521.7272252,
            -551.9799173,
            -582.2365471,
            -612.4891209,
            -650.2994102,
            -695.6791665
          ],
          [
            13.9505408,
            13.7733284,
            13.5875169,
            13.2137508,
            12.5402991,
            11.2324971,
            8.819757,
            4.5052412,
            -3.160297,
            -11.1796639,
            -19.02647,
            -26.7803001,
            -34.4738127,
            -42.1496932,
            -49.7974581,
            -57.4309911,
            -65.0504443,
            -72.6684205,
            -80.2658343,
            -87.8635227,
            -95.4570044,
            -103.0469262,
            -110.6352519,
            -118.2163404,
            -125.7994819,
            -133.3803216,
            -140.9583826,
            -148.5358513,
            -163.6836381,
            -178.8306883,
            -193.9757533,
            -209.1176671,
            -224.2578934,
            -239.3976284,
            -254.5334678,
            -269.665697,
            -284.8005893,
            -299.9366748,
            -322.634799,
            -345.3336394,
            -368.0292654,
            -390.7255005,
            -413.4200973,
            -436.1129732,
            -458.8054864,
            -489.0620063,
            -519.3208597,
            -549.5736035,
            -579.8294042,
            -610.0832592,
            -647.9051978,
            -693.286118
          ],
          [
            18.3129953,
            18.1204289,
            17.9308982,
            17.5586439,
            16.8385099,
            15.4800982,
            12.9784093,
            8.4565273,
            0.4082634,
            -7.8000064,
            -15.7954241,
            -23.6505968,
            -31.4172601,
            -39.1472744,
            -46.8466232,
            -54.5172825,
            -62.1729746,
            -69.8136733,
            -77.4440072,
            -85.0633309,
            -92.6791057,
            -100.2865286,
            -107.890842,
            -115.4882292,
            -123.0836116,
            -130.677787,
            -138.2679244,
            -145.8547428,
            -161.0236815,
            -176.1846508,
            -191.3446349,
            -206.4977059,
            -221.6481465,
            -236.795943,
            -251.9403046,
            -267.0789177,
            -282.2282993,
            -297.3672433,
            -320.0731936,
            -342.7797502,
            -365.4825933,
            -388.1837124,
            -410.8839441,
            -433.5799001,
            -456.2770731,
            -486.5415644,
            -516.8016371,
            -547.0627097,
            -577.3198959,
            -607.5833536,
            -645.4073394,
            -690.7856624
          ],
          [
            29.9531927,
            29.7554515,
            29.5601113,
            29.1672242,
            28.4492412,
            27.0288999,
            24.3500723,
            19.5255964,
            10.8118496,
            2.0658848,
            -6.3200699,
            -14.4034295,
            -22.4172547,
            -30.3265097,
            -38.1678193,
            -45.9553124,
            -53.7164686,
            -61.4493875,
            -69.1700791,
            -76.862898,
            -84.5396728,
            -92.2132019,
            -99.864956,
            -107.5144614,
            -115.1534893,
            -122.7851694,
            -130.3956783,
            -138.0167506,
            -153.2586146,
            -168.4706683,
            -183.6801241,
            -198.8736519,
            -214.0592718,
            -229.2340638,
            -244.4114893,
            -259.5798045,
            -274.7432577,
            -289.9163135,
            -312.6534622,
            -335.3846655,
            -358.111267,
            -380.8420524,
            -403.560162,
            -426.275937,
            -448.9906845,
            -479.2653289,
            -509.5434429,
            -539.8194424,
            -570.0966123,
            -600.364455,
            -638.2012792,
            -683.6020727
          ],
          [
            35.7042989,
            35.4990013,
            35.3004032,
            34.9197043,
            34.1731903,
            32.7220178,
            30.0075676,
            25.060341,
            16.1521404,
            7.1730248,
            -1.3340287,
            -9.6310069,
            -17.7226906,
            -25.7025393,
            -33.6105582,
            -41.4721473,
            -49.2788928,
            -57.0599008,
            -64.7926161,
            -72.5206237,
            -80.2325729,
            -87.9418493,
            -95.6241633,
            -103.2956843,
            -110.9571406,
            -118.6103439,
            -126.2557991,
            -133.8850297,
            -149.1484179,
            -164.3874774,
            -179.6337807,
            -194.860157,
            -210.0670082,
            -225.2559698,
            -240.4482442,
            -255.6317138,
            -270.8117652,
            -285.9848766,
            -308.7488089,
            -331.4946672,
            -354.2347862,
            -376.9667102,
            -399.6974752,
            -422.4237976,
            -445.1465663,
            -475.4335057,
            -505.7201694,
            -536.0054439,
            -566.2919952,
            -596.5699429,
            -634.4129176,
            -679.8258712
          ],
          [
            41.4248912,
            41.2239096,
            41.025152,
            40.6574912,
            39.8886028,
            38.4046544,
            35.6548089,
            30.6120996,
            21.5287544,
            12.3991589,
            3.698492,
            -4.6999558,
            -12.9246276,
            -21.0027162,
            -28.9519161,
            -36.8768344,
            -44.7503575,
            -52.5801598,
            -60.3752924,
            -68.1417391,
            -75.8927193,
            -83.6112529,
            -91.3075466,
            -99.0048901,
            -106.6918189,
            -114.3671303,
            -122.0333454,
            -129.6929795,
            -145.0081893,
            -160.2815276,
            -175.5378934,
            -190.7772835,
            -206.00609,
            -221.2238768,
            -236.4342914,
            -251.6339681,
            -266.8289806,
            -282.0159992,
            -304.7906659,
            -327.5351671,
            -350.2826708,
            -373.0422681,
            -395.7856332,
            -418.5244703,
            -441.2574557,
            -471.5623264,
            -501.8618676,
            -532.1561338,
            -562.4451291,
            -592.7325612,
            -630.5857624,
            -676.0147489
          ],
          [
            48.2216565,
            48.0340496,
            47.8323256,
            47.4285236,
            46.6590315,
            45.2054685,
            42.480721,
            37.332943,
            28.0875607,
            18.7779382,
            9.9349303,
            1.4115983,
            -6.9482395,
            -15.1410405,
            -23.2599402,
            -31.2424262,
            -39.1665525,
            -47.0488878,
            -54.9146321,
            -62.7300467,
            -70.5223544,
            -78.2841667,
            -86.0267508,
            -93.753522,
            -101.4789379,
            -109.170957,
            -116.8600227,
            -124.5673017,
            -139.9090729,
            -155.214549,
            -170.5058191,
            -185.7668904,
            -201.0221735,
            -216.2644255,
            -231.4964323,
            -246.7319853,
            -261.9457008,
            -277.1498466,
            -299.9490824,
            -322.7371014,
            -345.5217405,
            -368.2893883,
            -391.0487115,
            -413.8027346,
            -436.5502886,
            -466.8717528,
            -497.1893393,
            -527.4985396,
            -557.8020729,
            -588.0993426,
            -625.9659703,
            -671.3995644
          ],
          [
            57.2889229,
            57.1061524,
            56.8889026,
            56.4924073,
            55.7199904,
            54.2057607,
            51.3976077,
            46.1760796,
            36.7085209,
            27.2077163,
            18.2018161,
            9.4439466,
            0.9625939,
            -7.3724966,
            -15.5672045,
            -23.6755414,
            -31.7098612,
            -39.6692243,
            -47.5737996,
            -55.4563077,
            -63.3103803,
            -71.1387576,
            -78.9403097,
            -86.7111976,
            -94.4693724,
            -102.2102897,
            -109.9416281,
            -117.6518559,
            -133.0461534,
            -148.4307605,
            -163.7691437,
            -179.0839923,
            -194.3712233,
            -209.6367903,
            -224.9006049,
            -240.1515337,
            -255.4056358,
            -270.6378689,
            -293.4704117,
            -316.287936,
            -339.1018786,
            -361.8944293,
            -384.6777856,
            -407.4536255,
            -430.2214403,
            -460.5676382,
            -490.9044566,
            -521.2327455,
            -551.5549416,
            -581.8704711,
            -619.7573522,
            -665.2100018
          ],
          [
            68.3542104,
            68.1355728,
            67.9394034,
            67.5480914,
            66.7671466,
            65.2517755,
            62.4115613,
            57.0841769,
            47.4466813,
            37.7171134,
            28.5141365,
            19.6059672,
            10.9638046,
            2.4680044,
            -5.863798,
            -14.0832327,
            -22.2204606,
            -30.2960997,
            -38.3118128,
            -46.2766038,
            -54.1763189,
            -62.0547591,
            -69.9139114,
            -77.745446,
            -85.5724771,
            -93.3706775,
            -101.1526321,
            -108.9049255,
            -124.3826971,
            -139.8187779,
            -155.2140761,
            -170.5754545,
            -185.9121596,
            -201.2665293,
            -216.579461,
            -231.8711287,
            -247.1390577,
            -262.4065115,
            -285.2874541,
            -308.1325153,
            -330.9824634,
            -353.8073443,
            -376.6227055,
            -399.4262429,
            -422.2194516,
            -452.5986547,
            -482.9638577,
            -513.3175301,
            -543.6615345,
            -573.9990957,
            -611.9122474,
            -657.3936451
          ],
          [
            83.8013395,
            83.6046982,
            83.4020894,
            83.004234,
            82.2243787,
            80.7015621,
            77.8117903,
            72.3913554,
            62.5133958,
            52.5952393,
            43.1552696,
            34.0507261,
            25.2125355,
            16.5859933,
            8.0126213,
            -0.3689953,
            -8.6396763,
            -16.8340408,
            -25.0114301,
            -33.0822501,
            -41.116608,
            -49.1030772,
            -57.0579223,
            -64.9660883,
            -72.8426073,
            -80.6960464,
            -88.5400367,
            -96.3657706,
            -111.9772547,
            -127.5170408,
            -143.0177113,
            -158.4739189,
            -173.8964965,
            -189.2868518,
            -204.6508396,
            -219.9937345,
            -235.3452324,
            -250.6592589,
            -273.6113178,
            -296.5304018,
            -319.3931683,
            -342.2847177,
            -365.1562252,
            -388.0055876,
            -410.8383796,
            -441.2666544,
            -471.6768844,
            -502.0729575,
            -532.4568206,
            -562.829194,
            -600.7807473,
            -646.305838
          ],
          [
            96.9888266,
            96.8031071,
            96.6015045,
            96.2020671,
            95.4161888,
            93.8948294,
            90.9452096,
            85.4808446,
            75.5124712,
            65.4116968,
            55.8017798,
            46.5729399,
            37.5079307,
            28.7226683,
            20.0854992,
            11.5376883,
            3.1529603,
            -5.1629201,
            -13.4316604,
            -21.5964261,
            -29.7053077,
            -37.7708906,
            -45.7971751,
            -53.7909023,
            -61.7486826,
            -69.6848829,
            -77.5882577,
            -85.4519593,
            -101.1336804,
            -116.775018,
            -132.356665,
            -147.8944316,
            -163.3952415,
            -178.8488109,
            -194.278327,
            -209.6825918,
            -225.0595136,
            -240.4142859,
            -263.4145002,
            -286.4102988,
            -309.3560547,
            -332.2804401,
            -355.1928315,
            -378.0800276,
            -400.9528683,
            -431.3893009,
            -461.8547643,
            -492.2899118,
            -522.7078109,
            -553.1127668,
            -591.1020718,
            -636.6672938
          ],
          [
            114.5565489,
            114.3588945,
            114.1637381,
            113.7524421,
            112.9652801,
            111.4349834,
            108.4765513,
            102.8977084,
            92.7634608,
            82.4334114,
            72.6431109,
            63.2548083,
            54.0769103,
            45.1511751,
            36.3512213,
            27.6644599,
            19.0863651,
            10.6578468,
            2.2946694,
            -6.0249486,
            -14.2550704,
            -22.4217669,
            -30.5403717,
            -38.6253349,
            -46.6677038,
            -54.6828167,
            -62.6684913,
            -70.6290332,
            -86.4701949,
            -102.2271655,
            -117.8944664,
            -133.5345955,
            -149.1316761,
            -164.6860013,
            -180.2040455,
            -195.6888519,
            -211.1342221,
            -226.5633654,
            -249.6674237,
            -272.7230677,
            -295.7374644,
            -318.7219363,
            -341.7106607,
            -364.6540826,
            -387.5774982,
            -418.1170979,
            -448.6304668,
            -479.1201898,
            -509.5900339,
            -540.0369581,
            -578.0813912,
            -623.7074504
          ]
        ]
      },
      "related_pin": "A",
      "rise_power,power_outputs_2": {
        "index_1": [
          0.001,
          0.013,
          0.026,
          0.072,
          0.216,
          0.432,
          0.864,
          1.296,
          2.5,
          3.125,
          3.75,
          4.5,
          5.5,
          6.75,
          8.5,
          10,
          12
        ],
        "index_2": [
          0,
          0.00715,
          0.01431,
          0.02861,
          0.05722,
          0.11445,
          0.22889,
          0.45779,
          0.91558,
          1.41558,
          1.91558,
          2.41558,
          2.91558,
          3.41558,
          3.91558,
          4.41558,
          4.91558,
          5.41558,
          5.91558,
          6.41558,
          6.91558,
          7.41558,
          7.91558,
          8.41558,
          8.91558,
          9.41558,
          9.91558,
          10.41558,
          11.41558,
          12.41558,
          13.41558,
          14.41558,
          15.41558,
          16.41558,
          17.41558,
          18.41558,
          19.41558,
          20.41558,
          21.91558,
          23.41558,
          24.91558,
          26.41558,
          27.91558,
          29.41558,
          30.91558,
          32.91558,
          34.91558,
          36.91558,
          38.91558,
          40.91558,
          43.41558,
          46.41558
        ],
        "values": [
          [
            4.6273234,
            4.6775012,
            4.7399702,
            4.8705187,
            5.1356413,
            5.7458742,
            7.2241928,
            10.4764247,
            17.1821765,
            24.6142898,
            32.0522806,
            39.5272899,
            47.0850942,
            54.4840159,
            61.996238,
            69.4702486,
            76.8926829,
            84.3934139,
            91.8660231,
            99.4129331,
            106.8118793,
            114.346514,
            121.8086736,
            129.2916964,
            136.7692536,
            144.2764101,
            151.7662622,
            159.2516462,
            174.194851,
            189.2067363,
            204.1643608,
            219.0804363,
            234.2376772,
            249.0457678,
            263.9968844,
            279.0208285,
            294.0087473,
            308.9812899,
            331.4234785,
            354.0969264,
            376.2111012,
            398.6505979,
            421.0984778,
            443.6622606,
            466.1531593,
            496.0966347,
            526.0023072,
            556.2169017,
            586.0810552,
            616.1033538,
            652.9937022,
            698.0100263
          ],
          [
            4.6822833,
            4.7391999,
            4.7959848,
            4.9241849,
            5.1955146,
            5.8140721,
            7.2943297,
            10.5438779,
            17.2855634,
            24.7231846,
            32.1529705,
            39.6028992,
            47.0716537,
            54.6214709,
            62.0948393,
            69.5807983,
            77.0469891,
            84.5430716,
            92.0230633,
            99.5090363,
            107.006014,
            114.4771521,
            121.9661435,
            129.4641827,
            136.9454027,
            144.4392928,
            151.902056,
            159.4143888,
            174.3573732,
            189.3687307,
            204.3236357,
            219.2987178,
            234.2922154,
            249.2138564,
            264.2465709,
            279.1751229,
            294.1977903,
            309.1446048,
            331.6380566,
            354.0453029,
            376.5510779,
            399.0135832,
            421.4292672,
            443.9634072,
            466.3495047,
            496.338109,
            526.1933258,
            556.2585888,
            586.2239347,
            616.0344668,
            653.5474769,
            698.5852264
          ],
          [
            4.6865423,
            4.7421645,
            4.8028749,
            4.9297154,
            5.1935175,
            5.815884,
            7.2792492,
            10.5365059,
            17.2747817,
            24.6669948,
            32.1884309,
            39.647141,
            47.0697478,
            54.6314277,
            62.0068336,
            69.5330096,
            77.0235975,
            84.4531302,
            91.9300744,
            99.3942669,
            106.9358824,
            114.3879809,
            121.8393831,
            129.3428626,
            136.8168538,
            144.3489898,
            151.8172764,
            159.2940554,
            174.2588392,
            189.2786916,
            204.2251032,
            219.2395416,
            234.1640127,
            249.1784935,
            264.1596685,
            279.0141133,
            294.0464112,
            309.0245597,
            331.3979725,
            353.9348891,
            376.4648965,
            398.7777463,
            421.264647,
            443.7980939,
            466.2652912,
            495.9806208,
            525.997092,
            556.1128717,
            585.8995299,
            615.8190801,
            653.3207691,
            698.2468293
          ],
          [
            4.775124,
            4.8276557,
            4.8906689,
            5.0146543,
            5.2835259,
            5.904031,
            7.3664351,
            10.613475,
            17.3079026,
            24.7155116,
            32.1873499,
            39.6538106,
            47.1490577,
            54.607508,
            62.1546014,
            69.5510279,
            77.0691494,
            84.5851051,
            92.0776567,
            99.6141576,
            107.0037986,
            114.4234715,
            121.9205107,
            129.3976518,
            136.9391966,
            144.426509,
            151.8898414,
            159.3788743,
            174.3138778,
            189.3447333,
            204.2982366,
            219.2234162,
            234.2227693,
            249.3383073,
            264.1167291,
            279.1039544,
            294.1220702,
            309.1129037,
            331.5434908,
            353.887759,
            376.3015002,
            398.8866268,
            421.3778866,
            443.8348132,
            466.2788891,
            496.4167091,
            526.392492,
            556.3138199,
            585.8052707,
            615.713943,
            653.248658,
            698.2323425
          ],
          [
            5.8979261,
            5.9530602,
            6.0062064,
            6.1207041,
            6.3756104,
            6.9534266,
            8.3488745,
            11.4631221,
            18.0514263,
            25.4024712,
            32.8386207,
            40.2854134,
            47.7540704,
            55.2212225,
            62.6763586,
            70.1690619,
            77.6901042,
            85.0943856,
            92.55916,
            100.0188417,
            107.5346867,
            115.0289519,
            122.4881065,
            129.9359771,
            137.4298394,
            144.9386771,
            152.4341625,
            159.9208919,
            174.8816805,
            189.8643811,
            204.8847624,
            219.8062608,
            234.7223647,
            249.7227724,
            264.8412527,
            279.6075166,
            294.5903024,
            309.6265147,
            332.0856614,
            354.4400877,
            376.8502485,
            399.3243833,
            421.8785075,
            444.3356837,
            466.655637,
            496.5910098,
            526.4517773,
            556.5764914,
            586.5716468,
            616.4643854,
            653.7470853,
            698.5655192
          ],
          [
            8.0857299,
            8.1284006,
            8.1731026,
            8.2669787,
            8.4845048,
            9.0122553,
            10.2655641,
            13.1676745,
            19.5316615,
            26.8147552,
            34.1203884,
            41.532809,
            49.0335792,
            56.3971815,
            63.8513538,
            71.3423017,
            78.832445,
            86.1780174,
            93.6578278,
            101.126162,
            108.6299403,
            116.1272375,
            123.5666238,
            131.0148412,
            138.5473809,
            145.9753948,
            153.5221994,
            160.9844071,
            175.9332886,
            191.0143408,
            205.8625251,
            220.84982,
            235.7583325,
            250.7551872,
            265.692202,
            280.6329953,
            295.6715106,
            310.6482717,
            333.0393622,
            355.4299282,
            377.9371184,
            400.4452249,
            422.9089238,
            445.2659319,
            467.656165,
            497.6530403,
            527.6882733,
            557.6324147,
            587.4192959,
            617.2689063,
            654.7821938,
            699.8090092
          ],
          [
            12.7930695,
            12.822382,
            12.840385,
            12.9228815,
            13.0932721,
            13.5138185,
            14.5706996,
            17.1042366,
            23.1712164,
            30.1728795,
            37.3370822,
            44.5592493,
            51.9671698,
            59.2655018,
            66.6556206,
            74.0578839,
            81.5616609,
            88.9736445,
            96.3884876,
            103.8018444,
            111.2504662,
            118.7550556,
            126.125948,
            133.6152296,
            141.2185185,
            148.5633066,
            156.0637185,
            163.5211386,
            178.4540879,
            193.5181126,
            208.3806735,
            223.3199936,
            238.2237041,
            253.3297492,
            268.147221,
            283.0939254,
            298.1037419,
            313.0692344,
            335.6671868,
            357.8505275,
            380.2967705,
            402.8330478,
            425.2901406,
            447.6125915,
            470.4035011,
            499.9662822,
            529.8657404,
            559.8222615,
            589.846059,
            619.8354409,
            657.2669636,
            702.1512293
          ],
          [
            17.2584659,
            17.2891479,
            17.3324206,
            17.3820719,
            17.5289197,
            17.897224,
            18.8476825,
            21.3078361,
            26.8846354,
            33.7337119,
            40.795268,
            47.9521114,
            55.1277954,
            62.4623723,
            69.7222622,
            77.1544163,
            84.4879767,
            91.8206636,
            99.2607699,
            106.7356612,
            114.1022719,
            121.5266279,
            128.9921788,
            136.412976,
            143.8808307,
            151.3552918,
            158.8795333,
            166.2712128,
            181.1312365,
            196.1026392,
            211.0246811,
            225.9675117,
            240.8495036,
            255.9529118,
            270.9321706,
            285.6928005,
            300.638921,
            315.6386904,
            338.0859019,
            360.6728078,
            383.1264598,
            405.2724414,
            427.6780508,
            450.2092214,
            472.7121931,
            502.6209184,
            532.7960419,
            562.7250303,
            592.233466,
            622.112386,
            659.6135182,
            704.641721
          ],
          [
            29.0810953,
            29.1024793,
            29.1327589,
            29.1961942,
            29.3136107,
            29.6110568,
            30.3879978,
            32.4377298,
            37.5959335,
            43.9666326,
            50.4699776,
            57.3537454,
            64.5056383,
            71.5680406,
            78.8375483,
            86.0889518,
            93.3472251,
            100.6222564,
            107.9114418,
            115.2196759,
            122.5512097,
            129.8889199,
            137.2268239,
            144.6468694,
            152.0358992,
            159.3938858,
            166.8247143,
            174.2588188,
            189.1102783,
            204.050431,
            218.937749,
            233.6737033,
            248.5507414,
            263.6458777,
            278.3463078,
            293.3273409,
            308.4007753,
            323.0836912,
            345.5643459,
            367.889268,
            390.3101688,
            412.7813877,
            435.1014803,
            457.4662891,
            479.9725631,
            510.1604523,
            539.7077471,
            569.5264379,
            599.6258945,
            629.5466094,
            666.7991675,
            711.6827131
          ],
          [
            35.0268029,
            35.0504333,
            35.0768843,
            35.1226117,
            35.2698515,
            35.534664,
            36.2730074,
            38.218708,
            43.107811,
            49.2834959,
            55.9060422,
            62.4905638,
            69.4025656,
            76.3745882,
            83.472053,
            90.6721643,
            97.8975477,
            105.1392928,
            112.3649114,
            119.7174293,
            127.0437311,
            134.382148,
            141.6570479,
            149.0816038,
            156.3621235,
            163.7764384,
            171.1723096,
            178.521706,
            193.3177911,
            208.0722323,
            222.983934,
            237.8380147,
            252.7023661,
            267.5393255,
            282.4518309,
            297.3091062,
            312.4235887,
            327.1195489,
            349.5428623,
            371.8571266,
            394.2707821,
            416.7344241,
            438.995622,
            461.4515757,
            483.9262085,
            513.7039857,
            543.5800163,
            573.5892136,
            603.3827,
            633.1880683,
            670.7465403,
            715.502186
          ],
          [
            40.9154762,
            40.9394015,
            40.9597255,
            41.0056124,
            41.1418784,
            41.4053343,
            42.0984049,
            43.9039676,
            48.6282927,
            54.7012473,
            61.1245536,
            67.796432,
            74.3158205,
            81.2211817,
            88.251824,
            95.4087331,
            102.499266,
            109.7043877,
            117.033667,
            124.3239417,
            131.5905417,
            138.8735871,
            146.1755753,
            153.5069577,
            160.8746421,
            168.1885251,
            175.5551279,
            182.9487365,
            197.6660112,
            212.4540348,
            227.2615016,
            242.0604744,
            256.8603239,
            271.7621437,
            286.5781461,
            301.4459671,
            316.3575295,
            331.1857994,
            353.5501341,
            375.8790238,
            398.2632592,
            420.598865,
            442.9184062,
            465.4572629,
            487.7587865,
            517.5796971,
            547.5894487,
            577.3766618,
            607.1757018,
            637.245682,
            674.4919644,
            719.249338
          ],
          [
            47.9156475,
            47.9085247,
            47.9355587,
            48.0052841,
            48.1209555,
            48.4082777,
            49.0284379,
            50.7744961,
            55.2750245,
            61.1120047,
            67.4776974,
            74.0768977,
            80.7748316,
            87.3685849,
            94.1685769,
            101.2454258,
            108.3542143,
            115.4670198,
            122.6197393,
            129.8350471,
            137.0291915,
            144.2679529,
            151.6657943,
            158.9646042,
            166.234439,
            173.574285,
            180.8855303,
            188.247803,
            202.9714331,
            217.6637437,
            232.3683899,
            247.2076081,
            262.038901,
            276.7921496,
            291.7750979,
            306.4332833,
            321.3202544,
            336.220604,
            358.4702531,
            380.8282308,
            403.1947292,
            425.4000553,
            447.8537037,
            470.1398513,
            492.5885067,
            522.3621743,
            552.2587985,
            582.4633406,
            611.901114,
            641.9292957,
            679.046799,
            724.4577475
          ],
          [
            57.151069,
            57.1758097,
            57.2011401,
            57.2545314,
            57.3697413,
            57.633905,
            58.2795899,
            59.862081,
            64.2490648,
            69.8621859,
            76.0019274,
            82.406471,
            89.1099698,
            95.8359646,
            102.5424819,
            109.1673353,
            116.0455385,
            123.1051653,
            130.3278414,
            137.3904797,
            144.6950487,
            151.7974323,
            158.9976139,
            166.2253701,
            173.4684473,
            180.7900301,
            188.1541077,
            195.3342225,
            210.0691066,
            224.7375041,
            239.3965495,
            254.1920096,
            268.9641571,
            283.7550394,
            298.56227,
            313.3807693,
            328.1374872,
            342.9712497,
            365.300058,
            387.500246,
            409.8161182,
            431.9543035,
            454.410754,
            476.7691762,
            499.1426694,
            528.7613546,
            558.7190366,
            588.4646144,
            618.2625999,
            648.1247494,
            685.514528,
            730.2569618
          ],
          [
            68.5265635,
            68.5362432,
            68.5599257,
            68.6298905,
            68.7619516,
            68.9982209,
            69.6370432,
            71.1548638,
            75.2869474,
            80.6527594,
            86.6561169,
            92.9410547,
            99.3785025,
            106.0729114,
            112.7820794,
            119.5501932,
            126.2634759,
            132.9499884,
            139.7662871,
            146.8697397,
            153.9963955,
            161.2895151,
            168.3419252,
            175.5060662,
            182.7185837,
            189.9948299,
            197.2376988,
            204.4007418,
            218.9956003,
            233.6543246,
            248.2957158,
            262.9380239,
            277.6777235,
            292.4185345,
            307.1552105,
            321.9263034,
            336.7100529,
            351.4538641,
            373.75705,
            395.9285414,
            418.1788527,
            440.4217574,
            462.7633863,
            484.8755934,
            507.3848623,
            536.9819518,
            566.8021916,
            596.6941509,
            626.3117255,
            656.2446505,
            693.5981234,
            738.1206858
          ],
          [
            84.2784946,
            84.3006505,
            84.3234309,
            84.3890589,
            84.5195518,
            84.7747782,
            85.335309,
            86.820947,
            90.6992544,
            95.8542697,
            101.5246089,
            107.6713586,
            113.9366247,
            120.435114,
            126.9675275,
            133.6988791,
            140.4565568,
            147.3129334,
            154.1214732,
            160.8470655,
            167.643504,
            174.5818729,
            181.6983713,
            188.6713726,
            195.8172079,
            202.9783497,
            210.2480852,
            217.4371504,
            231.7527464,
            246.3641748,
            260.7695047,
            275.3536092,
            290.0450709,
            304.7293154,
            319.3702911,
            334.0640572,
            348.8089752,
            363.4717405,
            385.6544965,
            407.7944001,
            430.0674714,
            452.2891147,
            474.4892213,
            496.7928803,
            519.025599,
            548.7618512,
            578.4586886,
            607.9565269,
            637.9567845,
            667.7542654,
            704.7248857,
            749.6139202
          ],
          [
            97.808651,
            97.8141119,
            97.8417217,
            97.8958659,
            98.0409929,
            98.2658824,
            98.8989802,
            100.3116071,
            104.062225,
            108.9678079,
            114.5698961,
            120.3972347,
            126.6222136,
            132.8979019,
            139.4172842,
            146.0222924,
            152.6982161,
            159.5206337,
            166.3058311,
            173.1961944,
            180.0401365,
            186.8633174,
            193.5940028,
            200.3239805,
            207.3578375,
            214.4348528,
            221.530853,
            228.7457438,
            242.9440582,
            257.3974317,
            271.9233049,
            286.2633263,
            300.8064625,
            315.5383353,
            330.158299,
            344.6709344,
            359.3927605,
            374.1218845,
            396.175745,
            418.2002432,
            440.3768643,
            462.4750806,
            484.7684397,
            506.9242217,
            529.2218283,
            558.7942163,
            588.592471,
            618.2520641,
            647.9069354,
            677.3681369,
            714.855553,
            759.4285684
          ],
          [
            115.674138,
            115.6940596,
            115.7314047,
            115.7914886,
            115.917596,
            116.1639198,
            116.7616847,
            118.1728198,
            121.6677603,
            126.5049187,
            131.8489495,
            137.5290725,
            143.4286173,
            149.6741075,
            156.0235146,
            162.4652507,
            169.0410461,
            175.7472789,
            182.4459067,
            189.2148671,
            196.0614737,
            202.9538492,
            209.9149198,
            216.7567803,
            223.6078694,
            230.5048246,
            237.1635121,
            244.0338983,
            258.1743019,
            272.3016594,
            286.6631619,
            301.1935297,
            315.4581394,
            329.9050767,
            344.5061918,
            358.9977582,
            373.5788925,
            388.1891707,
            410.2275425,
            432.3307231,
            454.3572443,
            476.4529595,
            498.5012711,
            520.57484,
            542.8416371,
            572.4473821,
            602.0695592,
            631.73176,
            661.262461,
            691.1531947,
            728.2231208,
            772.7085953
          ]
        ]
      }
    },
    "max_capacitance": 38.66167,
    "power_down_function": "(!VPWR + VGND)",
    "related_ground_pin": "VGND",
    "related_power_pin": "VPWR",
    "timing": {
      "cell_fall,delay_template17x100": {
        "index_1": [
          0.001,
          0.013,
          0.026,
          0.072,
          0.216,
          0.432,
          0.864,
          1.296,
          2.5,
          3.125,
          3.75,
          4.5,
          5.5,
          6.75,
          8.5,
          10.0,
          12.0
        ],
        "index_2": [
          0.0,
          0.00715,
          0.01431,
          0.02861,
          0.05722,
          0.11445,
          0.22889,
          0.45779,
          0.91558,
          1.41558,
          1.91558,
          2.41558,
          2.91558,
          3.41558,
          3.91558,
          4.41558,
          4.91558,
          5.41558,
          5.91558,
          6.41558,
          6.91558,
          7.41558,
          7.91558,
          8.41558,
          8.91558,
          9.41558,
          9.91558,
          10.41558,
          10.91558,
          11.41558,
          11.91558,
          12.41558,
          12.91558,
          13.41558,
          13.91558,
          14.41558,
          14.91558,
          15.41558,
          15.91558,
          16.41558,
          16.91558,
          17.41558,
          17.91558,
          18.41558,
          18.91558,
          19.41558,
          19.91558,
          20.41558,
          20.91558,
          21.41558,
          21.91558,
          22.41558,
          22.91558,
          23.41558,
          23.91558,
          24.41558,
          24.91558,
          25.41558,
          25.91558,
          26.41558,
          26.91558,
          27.41558,
          27.91558,
          28.41558,
          28.91558,
          29.41558,
          29.91558,
          30.41558,
          30.91558,
          31.41558,
          31.91558,
          32.41558,
          32.91558,
          33.41558,
          33.91558,
          34.41558,
          34.91558,
          35.41558,
          35.91558,
          36.41558,
          36.91558,
          37.41558,
          37.91558,
          38.41558,
          38.91558,
          39.41558,
          39.91558,
          40.41558,
          40.91558,
          41.41558,
          41.91558,
          42.41558,
          42.91558,
          43.41558,
          43.91558,
          44.41558,
          44.91558,
          45.41558,
          45.91558,
          46.41558
        ],
        "values": [
          [
            0.12088,
            0.12342,
            0.12582,
            0.13027,
            0.13832,
            0.15242,
            0.1767,
            0.21876,
            0.29533,
            0.37584,
            0.45574,
            0.53561,
            0.61559,
            0.69557,
            0.7755,
            0.8554,
            0.93549,
            1.01547,
            1.09547,
            1.17567,
            1.25567,
            1.33567,
            1.41557,
            1.49587,
            1.57587,
            1.65617,
            1.73607,
            1.81547,
            1.89547,
            1.97607,
            2.05637,
            2.13587,
            2.21697,
            2.29627,
            2.37617,
            2.45567,
            2.53657,
            2.61617,
            2.69677,
            2.77697,
            2.85697,
            2.93637,
            3.01647,
            3.09737,
            3.17747,
            3.25707,
            3.33757,
            3.41757,
            3.49767,
            3.57677,
            3.65797,
            3.73777,
            3.81787,
            3.89727,
            3.97797,
            4.05767,
            4.13837,
            4.21777,
            4.29837,
            4.37847,
            4.45827,
            4.53907,
            4.61837,
            4.69887,
            4.77817,
            4.85877,
            4.93907,
            5.01897,
            5.09927,
            5.17907,
            5.25937,
            5.33707,
            5.41927,
            5.49937,
            5.57917,
            5.65907,
            5.73847,
            5.81967,
            5.89987,
            5.97957,
            6.05847,
            6.13847,
            6.21957,
            6.30037,
            6.38037,
            6.46037,
            6.53917,
            6.61937,
            6.69977,
            6.78017,
            6.86097,
            6.94107,
            7.02067,
            7.09927,
            7.18057,
            7.26087,
            7.33847,
            7.41997,
            7.50127,
            7.58047
          ],
          [
            0.12354,
            0.12607,
            0.12846,
            0.13291,
            0.14094,
            0.15505,
            0.17933,
            0.22141,
            0.29798,
            0.37848,
            0.45842,
            0.53827,
            0.61816,
            0.69818,
            0.77809,
            0.85799,
            0.93816,
            1.01807,
            1.09797,
            1.17837,
            1.25827,
            1.33817,
            1.41827,
            1.49867,
            1.57837,
            1.65877,
            1.73837,
            1.81887,
            1.89857,
            1.97927,
            2.05887,
            2.13907,
            2.21907,
            2.29937,
            2.37917,
            2.45997,
            2.53907,
            2.61937,
            2.69867,
            2.77967,
            2.86047,
            2.93877,
            3.01967,
            3.09897,
            3.17987,
            3.26017,
            3.33977,
            3.42007,
            3.49977,
            3.58047,
            3.66047,
            3.74097,
            3.81997,
            3.90067,
            3.98077,
            4.06087,
            4.13947,
            4.21967,
            4.30097,
            4.37947,
            4.46157,
            4.53947,
            4.62007,
            4.70157,
            4.77977,
            4.86027,
            4.94097,
            5.02197,
            5.10097,
            5.18087,
            5.26177,
            5.34107,
            5.42187,
            5.50237,
            5.58237,
            5.66257,
            5.74227,
            5.82247,
            5.90257,
            5.98097,
            6.06307,
            6.14307,
            6.22097,
            6.30347,
            6.38307,
            6.46227,
            6.54177,
            6.62147,
            6.70287,
            6.78327,
            6.86357,
            6.94267,
            7.02387,
            7.10317,
            7.18287,
            7.26377,
            7.34187,
            7.42137,
            7.50327,
            7.58207
          ],
          [
            0.126,
            0.12852,
            0.1309,
            0.13534,
            0.14336,
            0.15745,
            0.18172,
            0.22379,
            0.30037,
            0.3809,
            0.46079,
            0.54065,
            0.62063,
            0.70056,
            0.78057,
            0.86053,
            0.94053,
            1.02053,
            1.10033,
            1.18063,
            1.26063,
            1.34073,
            1.42033,
            1.50063,
            1.58103,
            1.66093,
            1.74133,
            1.82123,
            1.90133,
            1.98163,
            2.06133,
            2.14103,
            2.22213,
            2.30173,
            2.38153,
            2.46073,
            2.54173,
            2.62213,
            2.70183,
            2.78233,
            2.86093,
            2.94143,
            3.02233,
            3.10223,
            3.18183,
            3.26283,
            3.34213,
            3.42253,
            3.50293,
            3.58273,
            3.66133,
            3.74313,
            3.82313,
            3.90133,
            3.98323,
            4.06333,
            4.14263,
            4.22333,
            4.30313,
            4.38353,
            4.46373,
            4.54373,
            4.62333,
            4.70313,
            4.78413,
            4.86343,
            4.94443,
            5.02463,
            5.10343,
            5.18483,
            5.26383,
            5.34423,
            5.42373,
            5.50413,
            5.58253,
            5.66423,
            5.74503,
            5.82293,
            5.90453,
            5.98523,
            6.06523,
            6.14503,
            6.22393,
            6.30313,
            6.38553,
            6.46563,
            6.54503,
            6.62513,
            6.70533,
            6.78503,
            6.86563,
            6.94603,
            7.02583,
            7.10463,
            7.18633,
            7.26583,
            7.34543,
            7.42573,
            7.50583,
            7.58643
          ],
          [
            0.13783,
            0.14034,
            0.14272,
            0.14714,
            0.15513,
            0.16914,
            0.1933,
            0.23529,
            0.31184,
            0.39234,
            0.47228,
            0.55216,
            0.63209,
            0.71206,
            0.79191,
            0.87195,
            0.9519,
            1.0319,
            1.112,
            1.192,
            1.2721,
            1.3524,
            1.4321,
            1.5124,
            1.5923,
            1.6721,
            1.7527,
            1.8326,
            1.9122,
            1.9919,
            2.0728,
            2.1524,
            2.233,
            2.3131,
            2.3932,
            2.4722,
            2.5529,
            2.6331,
            2.7135,
            2.7928,
            2.8728,
            2.9536,
            3.0339,
            3.1131,
            3.1928,
            3.2728,
            3.3533,
            3.4344,
            3.5141,
            3.5925,
            3.6744,
            3.7541,
            3.8337,
            3.914,
            3.9932,
            4.0746,
            4.1546,
            4.2346,
            4.3146,
            4.3953,
            4.4752,
            4.5549,
            4.6346,
            4.7132,
            4.7944,
            4.8755,
            4.9557,
            5.0335,
            5.1159,
            5.1959,
            5.2759,
            5.356,
            5.436,
            5.516,
            5.596,
            5.676,
            5.756,
            5.8352,
            5.9142,
            5.9936,
            6.0739,
            6.1541,
            6.234,
            6.3138,
            6.3949,
            6.4754,
            6.5557,
            6.6357,
            6.7156,
            6.7946,
            6.8764,
            6.9576,
            7.0355,
            7.1177,
            7.196,
            7.2769,
            7.3569,
            7.4368,
            7.5168,
            7.5967
          ],
          [
            0.18212,
            0.18465,
            0.18703,
            0.19142,
            0.19925,
            0.21288,
            0.23634,
            0.27739,
            0.35301,
            0.43298,
            0.5126,
            0.59227,
            0.67197,
            0.75188,
            0.8316,
            0.9116,
            0.9915,
            1.0716,
            1.1515,
            1.2317,
            1.3115,
            1.3915,
            1.4712,
            1.5512,
            1.6316,
            1.7114,
            1.792,
            1.8719,
            1.9513,
            2.0317,
            2.112,
            2.1923,
            2.2724,
            2.3525,
            2.4325,
            2.5115,
            2.5924,
            2.6729,
            2.7519,
            2.8316,
            2.9116,
            2.9919,
            3.0722,
            3.1524,
            3.2332,
            3.3128,
            3.3923,
            3.4736,
            3.5534,
            3.6337,
            3.7137,
            3.7925,
            3.8734,
            3.9531,
            4.0334,
            4.1134,
            4.1939,
            4.274,
            4.3524,
            4.4322,
            4.5134,
            4.5939,
            4.6735,
            4.7533,
            4.8325,
            4.9139,
            4.9947,
            5.0751,
            5.1553,
            5.235,
            5.3147,
            5.3954,
            5.475,
            5.5541,
            5.6352,
            5.7145,
            5.7953,
            5.8749,
            5.9547,
            6.0352,
            6.1151,
            6.1949,
            6.2745,
            6.3553,
            6.4354,
            6.5157,
            6.5958,
            6.6756,
            6.7552,
            6.8365,
            6.9136,
            6.9936,
            7.0768,
            7.157,
            7.2369,
            7.3158,
            7.3955,
            7.4762,
            7.557,
            7.6364
          ],
          [
            0.23647,
            0.2391,
            0.24158,
            0.24617,
            0.25439,
            0.26859,
            0.29268,
            0.33397,
            0.40893,
            0.48791,
            0.56663,
            0.6456,
            0.725,
            0.8045,
            0.884,
            0.9638,
            1.0434,
            1.1234,
            1.2032,
            1.2831,
            1.3628,
            1.443,
            1.523,
            1.603,
            1.683,
            1.763,
            1.8426,
            1.9226,
            2.0031,
            2.0831,
            2.1633,
            2.2434,
            2.3234,
            2.4033,
            2.4831,
            2.5629,
            2.6426,
            2.7225,
            2.8029,
            2.8826,
            2.9628,
            3.0438,
            3.1234,
            3.2035,
            3.2837,
            3.364,
            3.4439,
            3.5242,
            3.6043,
            3.684,
            3.764,
            3.8442,
            3.9241,
            4.0046,
            4.0846,
            4.1639,
            4.2438,
            4.3237,
            4.4036,
            4.4836,
            4.5636,
            4.6438,
            4.7239,
            4.8041,
            4.8843,
            4.9645,
            5.0447,
            5.1248,
            5.205,
            5.2851,
            5.3653,
            5.4456,
            5.5257,
            5.6058,
            5.6859,
            5.7659,
            5.846,
            5.9261,
            6.0061,
            6.0862,
            6.1662,
            6.2463,
            6.3263,
            6.4064,
            6.4864,
            6.5665,
            6.6465,
            6.7265,
            6.8061,
            6.8857,
            6.9653,
            7.0449,
            7.1247,
            7.2044,
            7.2866,
            7.3662,
            7.4458,
            7.5254,
            7.605,
            7.6845
          ],
          [
            0.3177,
            0.3206,
            0.3233,
            0.3285,
            0.3376,
            0.3534,
            0.3797,
            0.4238,
            0.5007,
            0.58,
            0.6581,
            0.7363,
            0.8146,
            0.8933,
            0.9722,
            1.0513,
            1.1307,
            1.21,
            1.2896,
            1.369,
            1.4487,
            1.5285,
            1.6081,
            1.6878,
            1.7673,
            1.8476,
            1.9276,
            2.0074,
            2.0871,
            2.167,
            2.2464,
            2.3265,
            2.4067,
            2.4869,
            2.5671,
            2.6472,
            2.7273,
            2.8073,
            2.8874,
            2.9671,
            3.0473,
            3.1267,
            3.206,
            3.2865,
            3.3658,
            3.4457,
            3.526,
            3.6064,
            3.686,
            3.7664,
            3.8466,
            3.9271,
            4.007,
            4.0872,
            4.1672,
            4.2475,
            4.3277,
            4.4077,
            4.4878,
            4.568,
            4.6479,
            4.7269,
            4.8076,
            4.8881,
            4.9681,
            5.0478,
            5.1272,
            5.2076,
            5.2858,
            5.3674,
            5.4467,
            5.5257,
            5.6056,
            5.6857,
            5.766,
            5.8463,
            5.9269,
            6.0072,
            6.0877,
            6.1677,
            6.2481,
            6.3282,
            6.4082,
            6.4883,
            6.5683,
            6.6489,
            6.7289,
            6.8092,
            6.8892,
            6.9692,
            7.0493,
            7.1295,
            7.2095,
            7.2896,
            7.3696,
            7.4497,
            7.5298,
            7.6098,
            7.6899,
            7.7699
          ],
          [
            0.3816,
            0.3847,
            0.3876,
            0.3931,
            0.403,
            0.42,
            0.4483,
            0.4951,
            0.5753,
            0.6569,
            0.7368,
            0.8156,
            0.894,
            0.9723,
            1.0509,
            1.1296,
            1.2084,
            1.2873,
            1.3664,
            1.4456,
            1.5251,
            1.6042,
            1.6838,
            1.7635,
            1.8431,
            1.9224,
            2.0023,
            2.082,
            2.1618,
            2.2415,
            2.321,
            2.4006,
            2.4811,
            2.561,
            2.6409,
            2.7208,
            2.8007,
            2.8805,
            2.9599,
            3.0395,
            3.1197,
            3.1993,
            3.2801,
            3.3594,
            3.4399,
            3.5203,
            3.6001,
            3.6803,
            3.7607,
            3.8408,
            3.9206,
            4.0004,
            4.0801,
            4.1603,
            4.2405,
            4.3194,
            4.3999,
            4.4785,
            4.5587,
            4.6394,
            4.719,
            4.7983,
            4.8796,
            4.9591,
            5.039,
            5.1198,
            5.1989,
            5.2807,
            5.3607,
            5.4407,
            5.5211,
            5.601,
            5.6813,
            5.7613,
            5.841,
            5.9216,
            6.001,
            6.0817,
            6.1618,
            6.2418,
            6.3214,
            6.4017,
            6.482,
            6.5598,
            6.6417,
            6.7218,
            6.8009,
            6.8802,
            6.9601,
            7.0396,
            7.1187,
            7.1988,
            7.2786,
            7.3622,
            7.4392,
            7.5225,
            7.6012,
            7.6802,
            7.7607,
            7.8389
          ],
          [
            0.52257,
            0.52597,
            0.52917,
            0.53537,
            0.54657,
            0.56607,
            0.59857,
            0.65157,
            0.73967,
            0.82657,
            0.91047,
            0.99357,
            1.07617,
            1.15827,
            1.23987,
            1.32097,
            1.40147,
            1.48137,
            1.56087,
            1.63997,
            1.71887,
            1.79777,
            1.87667,
            1.95587,
            2.03487,
            2.11397,
            2.19307,
            2.27227,
            2.35167,
            2.43097,
            2.51027,
            2.58967,
            2.66927,
            2.74897,
            2.82857,
            2.90787,
            2.98727,
            3.06697,
            3.14677,
            3.22667,
            3.30637,
            3.38597,
            3.46557,
            3.54477,
            3.62517,
            3.70507,
            3.78497,
            3.86487,
            3.94467,
            4.02427,
            4.10407,
            4.18367,
            4.26327,
            4.34357,
            4.42297,
            4.50367,
            4.58297,
            4.66367,
            4.74357,
            4.82367,
            4.90317,
            4.98317,
            5.06287,
            5.14267,
            5.22227,
            5.30187,
            5.38137,
            5.46227,
            5.54187,
            5.62157,
            5.70117,
            5.78077,
            5.86127,
            5.94067,
            6.02167,
            6.10347,
            6.18347,
            6.26357,
            6.34367,
            6.42377,
            6.50377,
            6.58377,
            6.66357,
            6.74387,
            6.82397,
            6.90407,
            6.98377,
            7.06387,
            7.14397,
            7.22397,
            7.30407,
            7.38287,
            7.46297,
            7.54257,
            7.62277,
            7.70027,
            7.78137,
            7.86137,
            7.94067,
            8.02067
          ],
          [
            0.58453,
            0.58803,
            0.59143,
            0.59783,
            0.60953,
            0.62993,
            0.66413,
            0.71983,
            0.81143,
            0.90083,
            0.98653,
            1.07103,
            1.15513,
            1.23873,
            1.32213,
            1.40493,
            1.48723,
            1.56903,
            1.65033,
            1.73113,
            1.81143,
            1.89123,
            1.97073,
            2.05003,
            2.12903,
            2.20803,
            2.28713,
            2.36623,
            2.44523,
            2.52463,
            2.60373,
            2.68293,
            2.76223,
            2.84143,
            2.92103,
            3.00033,
            3.07983,
            3.15953,
            3.23923,
            3.31853,
            3.39773,
            3.47733,
            3.55723,
            3.63703,
            3.71673,
            3.79623,
            3.87553,
            3.95523,
            4.03523,
            4.11523,
            4.19493,
            4.27473,
            4.35443,
            4.43403,
            4.51353,
            4.59293,
            4.67293,
            4.75303,
            4.83313,
            4.91323,
            4.99313,
            5.07313,
            5.15303,
            5.23283,
            5.31263,
            5.39233,
            5.47203,
            5.55183,
            5.63153,
            5.71133,
            5.79123,
            5.87073,
            5.95083,
            6.03123,
            6.11143,
            6.19133,
            6.27193,
            6.35203,
            6.43203,
            6.51193,
            6.59183,
            6.67203,
            6.75193,
            6.83203,
            6.91173,
            6.99153,
            7.07173,
            7.15063,
            7.23103,
            7.31093,
            7.39063,
            7.46983,
            7.54983,
            7.63083,
            7.70983,
            7.78883,
            7.86883,
            7.94983,
            8.02883,
            8.10883
          ],
          [
            0.6421,
            0.6457,
            0.6491,
            0.6557,
            0.6678,
            0.6891,
            0.7247,
            0.7828,
            0.8777,
            0.9696,
            1.057,
            1.1428,
            1.228,
            1.3129,
            1.3975,
            1.4817,
            1.5656,
            1.6489,
            1.7318,
            1.8142,
            1.8961,
            1.9775,
            2.0585,
            2.1391,
            2.2192,
            2.299,
            2.3785,
            2.4578,
            2.5369,
            2.6161,
            2.6951,
            2.7745,
            2.8537,
            2.9328,
            3.0123,
            3.0914,
            3.1706,
            3.2499,
            3.3292,
            3.4087,
            3.4881,
            3.5676,
            3.647,
            3.7264,
            3.8062,
            3.8861,
            3.9657,
            4.0452,
            4.1246,
            4.2037,
            4.2836,
            4.3636,
            4.4433,
            4.5232,
            4.6029,
            4.6824,
            4.7622,
            4.8416,
            4.921,
            5.0011,
            5.0812,
            5.1613,
            5.2411,
            5.321,
            5.4008,
            5.4805,
            5.5602,
            5.6397,
            5.7192,
            5.7988,
            5.8784,
            5.959,
            6.039,
            6.1191,
            6.1993,
            6.2793,
            6.3592,
            6.4392,
            6.5191,
            6.599,
            6.6789,
            6.7585,
            6.8387,
            6.918,
            6.998,
            7.078,
            7.157,
            7.237,
            7.317,
            7.397,
            7.476,
            7.556,
            7.636,
            7.716,
            7.797,
            7.878,
            7.957,
            8.038,
            8.118,
            8.198
          ],
          [
            0.7068,
            0.7105,
            0.714,
            0.7208,
            0.7333,
            0.7554,
            0.7926,
            0.8533,
            0.9519,
            1.0465,
            1.136,
            1.2233,
            1.3098,
            1.3959,
            1.4818,
            1.5673,
            1.6525,
            1.7374,
            1.8218,
            1.9058,
            1.9894,
            2.0725,
            2.1552,
            2.2374,
            2.3192,
            2.4007,
            2.4817,
            2.5623,
            2.6426,
            2.7225,
            2.8022,
            2.8817,
            2.961,
            3.0403,
            3.1194,
            3.1986,
            3.278,
            3.357,
            3.4364,
            3.5157,
            3.5951,
            3.6744,
            3.7537,
            3.833,
            3.9124,
            3.9917,
            4.0713,
            4.1507,
            4.2303,
            4.3101,
            4.3898,
            4.4691,
            4.5484,
            4.6277,
            4.708,
            4.7876,
            4.8674,
            4.9471,
            5.0267,
            5.106,
            5.1854,
            5.265,
            5.3451,
            5.4252,
            5.505,
            5.5849,
            5.6646,
            5.7445,
            5.8239,
            5.9036,
            5.9833,
            6.0629,
            6.1423,
            6.2221,
            6.302,
            6.383,
            6.463,
            6.542,
            6.622,
            6.702,
            6.782,
            6.862,
            6.942,
            7.021,
            7.101,
            7.181,
            7.26,
            7.34,
            7.42,
            7.499,
            7.58,
            7.661,
            7.741,
            7.821,
            7.901,
            7.981,
            8.061,
            8.141,
            8.221,
            8.301
          ],
          [
            0.78767,
            0.79137,
            0.79507,
            0.80207,
            0.81507,
            0.83817,
            0.87717,
            0.94097,
            1.04417,
            1.14217,
            1.23417,
            1.32357,
            1.41177,
            1.49937,
            1.58657,
            1.67357,
            1.76027,
            1.84667,
            1.93277,
            2.01847,
            2.10377,
            2.18867,
            2.27317,
            2.35727,
            2.44097,
            2.52437,
            2.60727,
            2.68977,
            2.77197,
            2.85387,
            2.93527,
            3.01647,
            3.09727,
            3.17777,
            3.25807,
            3.33807,
            3.41777,
            3.49737,
            3.57677,
            3.65617,
            3.73537,
            3.81467,
            3.89397,
            3.97317,
            4.05277,
            4.13207,
            4.21127,
            4.29097,
            4.36987,
            4.44927,
            4.52887,
            4.60807,
            4.68747,
            4.76677,
            4.84627,
            4.92577,
            5.00547,
            5.08507,
            5.16437,
            5.24367,
            5.32377,
            5.40367,
            5.48367,
            5.56267,
            5.64267,
            5.72167,
            5.80067,
            5.88067,
            5.96067,
            6.04067,
            6.12067,
            6.20067,
            6.27967,
            6.35967,
            6.43867,
            6.51867,
            6.59767,
            6.67767,
            6.75767,
            6.83867,
            6.91767,
            6.99767,
            7.07767,
            7.15767,
            7.23767,
            7.31767,
            7.39667,
            7.47667,
            7.55667,
            7.63567,
            7.71567,
            7.79467,
            7.87467,
            7.95467,
            8.03467,
            8.11567,
            8.19567,
            8.27567,
            8.35567,
            8.43567
          ],
          [
            0.8824,
            0.8863,
            0.89,
            0.8972,
            0.9107,
            0.9348,
            0.9758,
            1.043,
            1.1516,
            1.2536,
            1.3486,
            1.4404,
            1.5306,
            1.6201,
            1.709,
            1.7975,
            1.8857,
            1.9737,
            2.0613,
            2.1487,
            2.2357,
            2.3224,
            2.4087,
            2.4947,
            2.5803,
            2.6655,
            2.7504,
            2.8349,
            2.9191,
            3.003,
            3.0865,
            3.1696,
            3.2525,
            3.335,
            3.4172,
            3.4991,
            3.5807,
            3.6621,
            3.7431,
            3.8239,
            3.9045,
            3.9848,
            4.0649,
            4.1448,
            4.2245,
            4.3041,
            4.384,
            4.463,
            4.542,
            4.622,
            4.701,
            4.78,
            4.86,
            4.939,
            5.019,
            5.098,
            5.178,
            5.257,
            5.337,
            5.416,
            5.495,
            5.574,
            5.654,
            5.733,
            5.813,
            5.892,
            5.972,
            6.051,
            6.131,
            6.211,
            6.29,
            6.37,
            6.449,
            6.529,
            6.608,
            6.688,
            6.768,
            6.848,
            6.928,
            7.008,
            7.087,
            7.167,
            7.246,
            7.325,
            7.405,
            7.485,
            7.565,
            7.645,
            7.725,
            7.805,
            7.885,
            7.964,
            8.044,
            8.123,
            8.203,
            8.282,
            8.362,
            8.441,
            8.522,
            8.602
          ],
          [
            1.00677,
            1.01067,
            1.01457,
            1.02207,
            1.03607,
            1.06137,
            1.10467,
            1.17607,
            1.29137,
            1.39877,
            1.49777,
            1.59277,
            1.68567,
            1.77757,
            1.86867,
            1.95927,
            2.04947,
            2.13937,
            2.22877,
            2.31797,
            2.40687,
            2.49547,
            2.58377,
            2.67177,
            2.75937,
            2.84667,
            2.93367,
            3.02067,
            3.10667,
            3.19267,
            3.27867,
            3.36367,
            3.44867,
            3.53367,
            3.61867,
            3.70267,
            3.78667,
            3.87067,
            3.95367,
            4.03667,
            4.11967,
            4.20167,
            4.28467,
            4.36667,
            4.44867,
            4.52967,
            4.61167,
            4.69267,
            4.77367,
            4.85467,
            4.93467,
            5.01467,
            5.09567,
            5.17567,
            5.25567,
            5.33467,
            5.41467,
            5.49467,
            5.57367,
            5.65267,
            5.73267,
            5.81167,
            5.89167,
            5.97067,
            6.04967,
            6.12967,
            6.20867,
            6.28867,
            6.36767,
            6.44767,
            6.52667,
            6.60667,
            6.68567,
            6.76467,
            6.84467,
            6.92367,
            7.00367,
            7.08267,
            7.16267,
            7.24167,
            7.32167,
            7.40067,
            7.48067,
            7.55967,
            7.63967,
            7.71867,
            7.79867,
            7.87867,
            7.95867,
            8.03767,
            8.11767,
            8.19667,
            8.27667,
            8.35667,
            8.43667,
            8.51667,
            8.59667,
            8.67567,
            8.75567,
            8.83567
          ],
          [
            1.10777,
            1.11177,
            1.11577,
            1.12337,
            1.13787,
            1.16397,
            1.20907,
            1.28357,
            1.40407,
            1.51587,
            1.61817,
            1.71567,
            1.81067,
            1.90467,
            1.99767,
            2.08967,
            2.18167,
            2.27267,
            2.36367,
            2.45467,
            2.54467,
            2.63467,
            2.72467,
            2.81367,
            2.90267,
            2.99167,
            3.07967,
            3.16867,
            3.25567,
            3.34367,
            3.43067,
            3.51767,
            3.60467,
            3.69067,
            3.77767,
            3.86267,
            3.94867,
            4.03367,
            4.11867,
            4.20367,
            4.28867,
            4.37267,
            4.45667,
            4.54067,
            4.62367,
            4.70667,
            4.78967,
            4.87267,
            4.95567,
            5.03767,
            5.11967,
            5.20167,
            5.28367,
            5.36467,
            5.44667,
            5.52767,
            5.60867,
            5.68967,
            5.76967,
            5.85067,
            5.93067,
            6.01067,
            6.09067,
            6.17067,
            6.25067,
            6.33067,
            6.41067,
            6.48967,
            6.56967,
            6.64867,
            6.72767,
            6.80767,
            6.88667,
            6.96667,
            7.04567,
            7.12567,
            7.20467,
            7.28467,
            7.36367,
            7.44367,
            7.52267,
            7.60267,
            7.68167,
            7.76067,
            7.84067,
            7.92067,
            7.99967,
            8.07967,
            8.15867,
            8.23767,
            8.31767,
            8.39667,
            8.47667,
            8.55567,
            8.63567,
            8.71467,
            8.79467,
            8.87467,
            8.95367,
            9.03367
          ],
          [
            1.237,
            1.241,
            1.245,
            1.253,
            1.268,
            1.295,
            1.342,
            1.42,
            1.547,
            1.664,
            1.771,
            1.872,
            1.97,
            2.066,
            2.161,
            2.255,
            2.349,
            2.442,
            2.535,
            2.628,
            2.72,
            2.811,
            2.903,
            2.994,
            3.084,
            3.175,
            3.265,
            3.355,
            3.444,
            3.533,
            3.622,
            3.711,
            3.799,
            3.887,
            3.975,
            4.063,
            4.15,
            4.237,
            4.324,
            4.411,
            4.497,
            4.583,
            4.669,
            4.755,
            4.84,
            4.925,
            5.01,
            5.095,
            5.179,
            5.264,
            5.348,
            5.432,
            5.515,
            5.599,
            5.682,
            5.765,
            5.848,
            5.93,
            6.013,
            6.095,
            6.177,
            6.259,
            6.341,
            6.423,
            6.504,
            6.585,
            6.666,
            6.747,
            6.828,
            6.909,
            6.989,
            7.07,
            7.15,
            7.23,
            7.31,
            7.39,
            7.47,
            7.55,
            7.63,
            7.709,
            7.789,
            7.869,
            7.948,
            8.027,
            8.107,
            8.186,
            8.266,
            8.345,
            8.425,
            8.504,
            8.584,
            8.663,
            8.742,
            8.822,
            8.901,
            8.981,
            9.06,
            9.14,
            9.219,
            9.299
          ]
        ]
      },
      "cell_rise,delay_template17x100": {
        "index_1": [
          0.001,
          0.013,
          0.026,
          0.072,
          0.216,
          0.432,
          0.864,
          1.296,
          2.5,
          3.125,
          3.75,
          4.5,
          5.5,
          6.75,
          8.5,
          10.0,
          12.0
        ],
        "index_2": [
          0.0,
          0.00715,
          0.01431,
          0.02861,
          0.05722,
          0.11445,
          0.22889,
          0.45779,
          0.91558,
          1.41558,
          1.91558,
          2.41558,
          2.91558,
          3.41558,
          3.91558,
          4.41558,
          4.91558,
          5.41558,
          5.91558,
          6.41558,
          6.91558,
          7.41558,
          7.91558,
          8.41558,
          8.91558,
          9.41558,
          9.91558,
          10.41558,
          10.91558,
          11.41558,
          11.91558,
          12.41558,
          12.91558,
          13.41558,
          13.91558,
          14.41558,
          14.91558,
          15.41558,
          15.91558,
          16.41558,
          16.91558,
          17.41558,
          17.91558,
          18.41558,
          18.91558,
          19.41558,
          19.91558,
          20.41558,
          20.91558,
          21.41558,
          21.91558,
          22.41558,
          22.91558,
          23.41558,
          23.91558,
          24.41558,
          24.91558,
          25.41558,
          25.91558,
          26.41558,
          26.91558,
          27.41558,
          27.91558,
          28.41558,
          28.91558,
          29.41558,
          29.91558,
          30.41558,
          30.91558,
          31.41558,
          31.91558,
          32.41558,
          32.91558,
          33.41558,
          33.91558,
          34.41558,
          34.91558,
          35.41558,
          35.91558,
          36.41558,
          36.91558,
          37.41558,
          37.91558,
          38.41558,
          38.91558,
          39.41558,
          39.91558,
          40.41558,
          40.91558,
          41.41558,
          41.91558,
          42.41558,
          42.91558,
          43.41558,
          43.91558,
          44.41558,
          44.91558,
          45.41558,
          45.91558,
          46.41558
        ],
        "values": [
          [
            0.12148,
            0.12386,
            0.1261,
            0.13023,
            0.13761,
            0.15049,
            0.17304,
            0.21436,
            0.29289,
            0.37717,
            0.46132,
            0.54557,
            0.62974,
            0.71405,
            0.79848,
            0.88271,
            0.96673,
            1.05097,
            1.13547,
            1.22007,
            1.30407,
            1.38797,
            1.47287,
            1.55727,
            1.64187,
            1.72627,
            1.80997,
            1.89447,
            1.97947,
            2.06327,
            2.14707,
            2.23177,
            2.31647,
            2.40067,
            2.48477,
            2.57007,
            2.65337,
            2.73737,
            2.82327,
            2.90657,
            2.99047,
            3.07457,
            3.16027,
            3.24507,
            3.32947,
            3.41197,
            3.49617,
            3.58067,
            3.66477,
            3.74887,
            3.83347,
            3.91757,
            4.00127,
            4.08547,
            4.16997,
            4.25437,
            4.33887,
            4.42327,
            4.50767,
            4.59207,
            4.67617,
            4.76047,
            4.84477,
            4.92907,
            5.01337,
            5.09777,
            5.18217,
            5.26647,
            5.35077,
            5.43507,
            5.51927,
            5.60337,
            5.68747,
            5.77147,
            5.85537,
            5.93927,
            6.02307,
            6.10767,
            6.19227,
            6.27637,
            6.36087,
            6.44537,
            6.52997,
            6.61427,
            6.69847,
            6.78257,
            6.86737,
            6.95217,
            7.03647,
            7.12087,
            7.20527,
            7.28837,
            7.37297,
            7.45737,
            7.54167,
            7.62577,
            7.70997,
            7.79417,
            7.87867,
            7.96307
          ],
          [
            0.12387,
            0.12624,
            0.12847,
            0.13259,
            0.13996,
            0.15283,
            0.17538,
            0.21672,
            0.29521,
            0.37954,
            0.46374,
            0.54792,
            0.63219,
            0.71636,
            0.80092,
            0.88494,
            0.96955,
            1.05377,
            1.13807,
            1.22197,
            1.30657,
            1.39047,
            1.47457,
            1.55877,
            1.64377,
            1.72787,
            1.81217,
            1.89737,
            1.98037,
            2.06477,
            2.14897,
            2.23367,
            2.31787,
            2.40267,
            2.48737,
            2.57187,
            2.65677,
            2.73997,
            2.82557,
            2.90997,
            2.99247,
            3.07707,
            3.16287,
            3.24667,
            3.33047,
            3.41437,
            3.49747,
            3.58277,
            3.66707,
            3.75067,
            3.83697,
            3.91937,
            4.00357,
            4.09007,
            4.17437,
            4.25857,
            4.34147,
            4.42577,
            4.50847,
            4.59407,
            4.67877,
            4.76287,
            4.84697,
            4.93157,
            5.01557,
            5.10037,
            5.18447,
            5.26837,
            5.35217,
            5.43707,
            5.52007,
            5.60597,
            5.68897,
            5.77457,
            5.85837,
            5.94177,
            6.02767,
            6.11127,
            6.19507,
            6.27937,
            6.36367,
            6.44797,
            6.53217,
            6.61637,
            6.70077,
            6.78557,
            6.87007,
            6.95517,
            7.03867,
            7.12267,
            7.20617,
            7.28977,
            7.37667,
            7.45947,
            7.54527,
            7.62727,
            7.71387,
            7.79817,
            7.88047,
            7.96627
          ],
          [
            0.1253,
            0.12767,
            0.12989,
            0.13401,
            0.14137,
            0.15424,
            0.17678,
            0.21811,
            0.29656,
            0.38096,
            0.46515,
            0.5493,
            0.63362,
            0.71769,
            0.80199,
            0.88662,
            0.97065,
            1.05483,
            1.13953,
            1.22343,
            1.30723,
            1.39223,
            1.47613,
            1.56123,
            1.64583,
            1.73023,
            1.81443,
            1.89773,
            1.98193,
            2.06593,
            2.15073,
            2.23543,
            2.31963,
            2.40513,
            2.48813,
            2.57183,
            2.65743,
            2.74223,
            2.82543,
            2.91063,
            2.99423,
            3.07833,
            3.16263,
            3.24603,
            3.33063,
            3.41563,
            3.50123,
            3.58453,
            3.66843,
            3.75213,
            3.83683,
            3.92133,
            4.00573,
            4.08983,
            4.17373,
            4.25753,
            4.34273,
            4.42703,
            4.51023,
            4.59593,
            4.67953,
            4.76363,
            4.84803,
            4.93273,
            5.01753,
            5.10183,
            5.18573,
            5.26943,
            5.35303,
            5.43793,
            5.52323,
            5.60753,
            5.69053,
            5.77623,
            5.85993,
            5.94413,
            6.02843,
            6.11263,
            6.19693,
            6.28113,
            6.36563,
            6.45013,
            6.53413,
            6.61813,
            6.70233,
            6.78653,
            6.87073,
            6.95483,
            7.03903,
            7.12323,
            7.20733,
            7.29113,
            7.37613,
            7.46083,
            7.54513,
            7.62903,
            7.71543,
            7.79953,
            7.88353,
            7.96733
          ],
          [
            0.13343,
            0.1358,
            0.13802,
            0.14214,
            0.1495,
            0.16234,
            0.18481,
            0.22606,
            0.30453,
            0.38885,
            0.473,
            0.55727,
            0.6415,
            0.72576,
            0.81024,
            0.89425,
            0.9785,
            1.0629,
            1.1474,
            1.2311,
            1.3158,
            1.3999,
            1.4846,
            1.5683,
            1.6536,
            1.7381,
            1.8224,
            1.9068,
            1.9899,
            2.0743,
            2.1588,
            2.243,
            2.3275,
            2.4115,
            2.4966,
            2.581,
            2.6657,
            2.7504,
            2.8349,
            2.9193,
            3.0035,
            3.0859,
            3.1725,
            3.2568,
            3.3411,
            3.4255,
            3.5097,
            3.5939,
            3.6764,
            3.7608,
            3.8451,
            3.9294,
            4.0136,
            4.0974,
            4.1812,
            4.2659,
            4.3504,
            4.4349,
            4.5193,
            4.6035,
            4.6878,
            4.7722,
            4.8563,
            4.9405,
            5.0244,
            5.1081,
            5.1923,
            5.277,
            5.3616,
            5.4462,
            5.5307,
            5.6152,
            5.6982,
            5.7822,
            5.8672,
            5.9515,
            6.0349,
            6.1193,
            6.2037,
            6.2881,
            6.3725,
            6.4575,
            6.5425,
            6.6258,
            6.7109,
            6.7942,
            6.8785,
            6.9628,
            7.0471,
            7.1315,
            7.2157,
            7.3,
            7.3847,
            7.4689,
            7.553,
            7.6372,
            7.7214,
            7.8056,
            7.8898,
            7.974
          ],
          [
            0.16631,
            0.16873,
            0.171,
            0.17517,
            0.18257,
            0.19533,
            0.21728,
            0.25746,
            0.33471,
            0.41831,
            0.50205,
            0.58612,
            0.67026,
            0.75439,
            0.8387,
            0.9228,
            1.0068,
            1.091,
            1.1751,
            1.2597,
            1.3439,
            1.4285,
            1.5127,
            1.5966,
            1.6816,
            1.7661,
            1.8502,
            1.9344,
            2.0179,
            2.1033,
            2.187,
            2.2711,
            2.3554,
            2.4405,
            2.5233,
            2.6095,
            2.6919,
            2.777,
            2.8621,
            2.947,
            3.0303,
            3.114,
            3.199,
            3.2827,
            3.3663,
            3.4506,
            3.5349,
            3.619,
            3.7036,
            3.7886,
            3.8719,
            3.9569,
            4.0415,
            4.1257,
            4.2097,
            4.2938,
            4.3784,
            4.4628,
            4.5472,
            4.6305,
            4.7166,
            4.7998,
            4.8839,
            4.9672,
            5.052,
            5.1367,
            5.2213,
            5.306,
            5.3902,
            5.4744,
            5.5586,
            5.6428,
            5.727,
            5.8112,
            5.8953,
            5.9795,
            6.0637,
            6.1478,
            6.232,
            6.3162,
            6.4003,
            6.4845,
            6.5687,
            6.6529,
            6.7371,
            6.8213,
            6.9055,
            6.9898,
            7.0741,
            7.1584,
            7.2428,
            7.3271,
            7.4114,
            7.4957,
            7.5801,
            7.6644,
            7.7488,
            7.8333,
            7.9178,
            8.0024
          ],
          [
            0.19954,
            0.20219,
            0.20467,
            0.20922,
            0.21724,
            0.23078,
            0.2534,
            0.29323,
            0.36924,
            0.45163,
            0.53449,
            0.61782,
            0.7014,
            0.7851,
            0.8691,
            0.9528,
            1.0371,
            1.1213,
            1.2052,
            1.2892,
            1.3738,
            1.4579,
            1.5419,
            1.6258,
            1.7103,
            1.7949,
            1.8794,
            1.9639,
            2.0482,
            2.1325,
            2.2165,
            2.3003,
            2.3838,
            2.4698,
            2.5522,
            2.637,
            2.7216,
            2.8062,
            2.8904,
            2.9747,
            3.0603,
            3.1446,
            3.229,
            3.3133,
            3.3976,
            3.4819,
            3.5662,
            3.6504,
            3.7344,
            3.8182,
            3.902,
            3.9857,
            4.0694,
            4.1535,
            4.238,
            4.3226,
            4.4071,
            4.4915,
            4.5759,
            4.6603,
            4.7446,
            4.8289,
            4.9132,
            4.9974,
            5.0816,
            5.1658,
            5.25,
            5.3342,
            5.4183,
            5.5025,
            5.5867,
            5.6708,
            5.755,
            5.8392,
            5.9235,
            6.0078,
            6.0921,
            6.1764,
            6.2608,
            6.3453,
            6.4299,
            6.5145,
            6.5992,
            6.6841,
            6.768,
            6.8513,
            6.9346,
            7.0194,
            7.1041,
            7.1887,
            7.2732,
            7.3577,
            7.4421,
            7.5265,
            7.6108,
            7.6951,
            7.7794,
            7.8636,
            7.9479,
            8.0321
          ],
          [
            0.23664,
            0.23962,
            0.24244,
            0.24764,
            0.25684,
            0.2723,
            0.2974,
            0.3391,
            0.4155,
            0.4975,
            0.5793,
            0.6616,
            0.7441,
            0.827,
            0.9102,
            0.9936,
            1.0769,
            1.1611,
            1.2444,
            1.3284,
            1.4121,
            1.4963,
            1.5802,
            1.664,
            1.7484,
            1.8327,
            1.9168,
            2.0008,
            2.0846,
            2.1689,
            2.2536,
            2.338,
            2.4222,
            2.5065,
            2.5906,
            2.6746,
            2.7574,
            2.8416,
            2.9258,
            3.0103,
            3.0952,
            3.1801,
            3.2644,
            3.3492,
            3.4332,
            3.518,
            3.6023,
            3.6867,
            3.771,
            3.8551,
            3.9392,
            4.0231,
            4.107,
            4.1908,
            4.2745,
            4.3582,
            4.4419,
            4.5265,
            4.6111,
            4.6956,
            4.7801,
            4.8645,
            4.9489,
            5.0334,
            5.1178,
            5.2021,
            5.2865,
            5.3708,
            5.4551,
            5.5393,
            5.6237,
            5.708,
            5.7924,
            5.8767,
            5.9611,
            6.0455,
            6.1298,
            6.2141,
            6.2985,
            6.383,
            6.4677,
            6.5525,
            6.6374,
            6.7222,
            6.8064,
            6.8878,
            6.9722,
            7.0565,
            7.1408,
            7.2251,
            7.3093,
            7.3935,
            7.4777,
            7.5619,
            7.6448,
            7.7289,
            7.8141,
            7.8984,
            7.9828,
            8.0672
          ],
          [
            0.257,
            0.2602,
            0.2633,
            0.2689,
            0.279,
            0.2959,
            0.3233,
            0.3675,
            0.4451,
            0.528,
            0.6108,
            0.6935,
            0.7761,
            0.8587,
            0.9416,
            1.0242,
            1.1073,
            1.1903,
            1.2739,
            1.3571,
            1.4408,
            1.5246,
            1.6081,
            1.6925,
            1.7763,
            1.8597,
            1.9436,
            2.0276,
            2.1113,
            2.1957,
            2.2798,
            2.3637,
            2.4475,
            2.5315,
            2.6156,
            2.7005,
            2.7849,
            2.869,
            2.9532,
            3.0371,
            3.1216,
            3.2052,
            3.2889,
            3.3728,
            3.4576,
            3.5421,
            3.6272,
            3.7114,
            3.7959,
            3.8801,
            3.964,
            4.0487,
            4.133,
            4.2161,
            4.3,
            4.3834,
            4.4695,
            4.5515,
            4.6362,
            4.7207,
            4.8056,
            4.89,
            4.9746,
            5.0585,
            5.1409,
            5.2265,
            5.3134,
            5.3976,
            5.4813,
            5.5653,
            5.649,
            5.7344,
            5.8196,
            5.9038,
            5.9874,
            6.0713,
            6.1565,
            6.2407,
            6.3249,
            6.4089,
            6.493,
            6.5769,
            6.661,
            6.7452,
            6.8295,
            6.914,
            6.9984,
            7.0827,
            7.1668,
            7.2516,
            7.3368,
            7.4177,
            7.502,
            7.5882,
            7.6706,
            7.7536,
            7.8371,
            7.923,
            8.0076,
            8.0913
          ],
          [
            0.27877,
            0.28227,
            0.28567,
            0.29217,
            0.30377,
            0.32367,
            0.35587,
            0.40677,
            0.48967,
            0.57417,
            0.65857,
            0.74327,
            0.82827,
            0.91297,
            0.99807,
            1.08247,
            1.16667,
            1.25077,
            1.33467,
            1.41817,
            1.50127,
            1.58427,
            1.66747,
            1.75147,
            1.83447,
            1.91777,
            2.00137,
            2.08407,
            2.16747,
            2.25117,
            2.33447,
            2.41837,
            2.50207,
            2.58587,
            2.66947,
            2.75397,
            2.83777,
            2.92077,
            3.00527,
            3.09037,
            3.17357,
            3.25647,
            3.34117,
            3.42547,
            3.50947,
            3.59347,
            3.67707,
            3.76057,
            3.84477,
            3.92927,
            4.01357,
            4.09777,
            4.18177,
            4.26567,
            4.34947,
            4.43317,
            4.51717,
            4.60187,
            4.68647,
            4.77117,
            4.85487,
            4.93937,
            5.02377,
            5.10817,
            5.19247,
            5.27677,
            5.36097,
            5.44507,
            5.52937,
            5.61347,
            5.69657,
            5.78167,
            5.86447,
            5.95067,
            6.03447,
            6.11737,
            6.20327,
            6.28757,
            6.37187,
            6.45627,
            6.54057,
            6.62477,
            6.70897,
            6.79317,
            6.87737,
            6.96157,
            7.04577,
            7.12987,
            7.21397,
            7.29807,
            7.38217,
            7.46617,
            7.55027,
            7.63377,
            7.71737,
            7.80097,
            7.88707,
            7.96967,
            8.05467,
            8.13767
          ],
          [
            0.27963,
            0.28333,
            0.28683,
            0.29353,
            0.30573,
            0.32673,
            0.36093,
            0.41483,
            0.50103,
            0.58653,
            0.67143,
            0.75663,
            0.84233,
            0.92813,
            1.01373,
            1.09963,
            1.18463,
            1.26993,
            1.35463,
            1.43903,
            1.52363,
            1.60753,
            1.69193,
            1.77573,
            1.85863,
            1.94203,
            2.02543,
            2.10893,
            2.19193,
            2.27533,
            2.35853,
            2.44243,
            2.52633,
            2.60913,
            2.69263,
            2.77643,
            2.86033,
            2.94353,
            3.02783,
            3.11093,
            3.19533,
            3.27903,
            3.36223,
            3.44693,
            3.53093,
            3.61473,
            3.69803,
            3.78253,
            3.86723,
            3.95153,
            4.03583,
            4.11943,
            4.20313,
            4.28543,
            4.37053,
            4.45523,
            4.53943,
            4.62343,
            4.70733,
            4.79113,
            4.87483,
            4.95883,
            5.04333,
            5.12723,
            5.21163,
            5.29583,
            5.38003,
            5.46393,
            5.54803,
            5.63153,
            5.71543,
            5.79933,
            5.88283,
            5.96713,
            6.05183,
            6.13653,
            6.22123,
            6.30593,
            6.39043,
            6.47493,
            6.55933,
            6.64363,
            6.72793,
            6.81223,
            6.89643,
            6.98053,
            7.06463,
            7.14883,
            7.23283,
            7.31653,
            7.39983,
            7.48383,
            7.56783,
            7.65083,
            7.73483,
            7.81983,
            7.90483,
            7.99083,
            8.07583,
            8.15983
          ],
          [
            0.2765,
            0.2802,
            0.2839,
            0.2908,
            0.3034,
            0.3254,
            0.3613,
            0.418,
            0.5074,
            0.5943,
            0.6795,
            0.7652,
            0.8514,
            0.9377,
            1.0243,
            1.1107,
            1.197,
            1.2827,
            1.3686,
            1.4542,
            1.5394,
            1.6248,
            1.7091,
            1.7939,
            1.8786,
            1.963,
            2.0467,
            2.1307,
            2.2136,
            2.2976,
            2.3808,
            2.4644,
            2.5481,
            2.631,
            2.7148,
            2.7987,
            2.8815,
            2.9657,
            3.0492,
            3.1322,
            3.2154,
            3.2994,
            3.3833,
            3.4672,
            3.5503,
            3.6344,
            3.7181,
            3.8015,
            3.8863,
            3.97,
            4.053,
            4.1375,
            4.2222,
            4.3062,
            4.3898,
            4.473,
            4.5572,
            4.6417,
            4.7266,
            4.811,
            4.8951,
            4.9789,
            5.0627,
            5.1466,
            5.2293,
            5.3135,
            5.3975,
            5.4821,
            5.5665,
            5.6508,
            5.7349,
            5.8186,
            5.9023,
            5.9857,
            6.0697,
            6.1542,
            6.2391,
            6.3237,
            6.4081,
            6.4923,
            6.5764,
            6.6603,
            6.7448,
            6.8287,
            6.913,
            6.996,
            7.08,
            7.164,
            7.248,
            7.332,
            7.416,
            7.501,
            7.586,
            7.671,
            7.755,
            7.84,
            7.924,
            8.009,
            8.093,
            8.178
          ],
          [
            0.2688,
            0.2726,
            0.2763,
            0.2834,
            0.2966,
            0.3195,
            0.3573,
            0.4169,
            0.5103,
            0.599,
            0.6849,
            0.7709,
            0.8575,
            0.9444,
            1.0316,
            1.1187,
            1.206,
            1.2926,
            1.3792,
            1.4658,
            1.552,
            1.6386,
            1.7245,
            1.81,
            1.8952,
            1.9802,
            2.0654,
            2.1503,
            2.2351,
            2.3195,
            2.4034,
            2.4872,
            2.5717,
            2.6552,
            2.7383,
            2.8214,
            2.905,
            2.9887,
            3.0719,
            3.1562,
            3.2395,
            3.3228,
            3.407,
            3.4902,
            3.5738,
            3.6576,
            3.7408,
            3.8244,
            3.908,
            3.9919,
            4.0757,
            4.1597,
            4.2433,
            4.3266,
            4.411,
            4.495,
            4.5778,
            4.6624,
            4.7466,
            4.8304,
            4.9139,
            4.9974,
            5.0827,
            5.1669,
            5.2509,
            5.3346,
            5.418,
            5.5014,
            5.5854,
            5.6704,
            5.7555,
            5.8398,
            5.924,
            6.0077,
            6.0917,
            6.1755,
            6.259,
            6.343,
            6.426,
            6.509,
            6.594,
            6.678,
            6.763,
            6.847,
            6.931,
            7.016,
            7.1,
            7.184,
            7.268,
            7.35,
            7.435,
            7.519,
            7.604,
            7.688,
            7.773,
            7.857,
            7.942,
            8.026,
            8.11,
            8.195
          ],
          [
            0.25357,
            0.25747,
            0.26137,
            0.26867,
            0.28237,
            0.30637,
            0.34627,
            0.40937,
            0.50777,
            0.59937,
            0.68647,
            0.77297,
            0.85997,
            0.94737,
            1.03507,
            1.12307,
            1.21087,
            1.29887,
            1.38627,
            1.47397,
            1.56137,
            1.64837,
            1.73567,
            1.82257,
            1.90937,
            1.99557,
            2.08137,
            2.16717,
            2.25337,
            2.33837,
            2.42417,
            2.50937,
            2.59427,
            2.67887,
            2.76317,
            2.84757,
            2.93237,
            3.01637,
            3.10077,
            3.18467,
            3.26767,
            3.35157,
            3.43507,
            3.51817,
            3.60117,
            3.68527,
            3.76977,
            3.85327,
            3.93657,
            4.02027,
            4.10387,
            4.18777,
            4.27137,
            4.35527,
            4.43897,
            4.52237,
            4.60537,
            4.68907,
            4.77257,
            4.85677,
            4.94017,
            5.02427,
            5.10867,
            5.19217,
            5.27517,
            5.35947,
            5.44367,
            5.52767,
            5.61067,
            5.69467,
            5.77967,
            5.86367,
            5.94767,
            6.03067,
            6.11467,
            6.19867,
            6.28367,
            6.36867,
            6.45267,
            6.53667,
            6.62067,
            6.70367,
            6.78667,
            6.87067,
            6.95467,
            7.03967,
            7.12467,
            7.20867,
            7.29367,
            7.37767,
            7.46167,
            7.54567,
            7.62867,
            7.71267,
            7.79667,
            7.87967,
            7.96467,
            8.04767,
            8.13067,
            8.21567
          ],
          [
            0.2289,
            0.233,
            0.2369,
            0.2445,
            0.2587,
            0.2839,
            0.3261,
            0.3931,
            0.4973,
            0.5927,
            0.6816,
            0.7691,
            0.8566,
            0.9445,
            1.0327,
            1.1214,
            1.21,
            1.2989,
            1.3872,
            1.4758,
            1.5642,
            1.6522,
            1.7404,
            1.8286,
            1.9166,
            2.0041,
            2.0914,
            2.1784,
            2.2651,
            2.3522,
            2.4387,
            2.5249,
            2.6109,
            2.697,
            2.7834,
            2.8692,
            2.9545,
            3.0398,
            3.1248,
            3.2099,
            3.295,
            3.3793,
            3.4633,
            3.5485,
            3.6331,
            3.7172,
            3.8006,
            3.8843,
            3.9684,
            4.0521,
            4.1359,
            4.2196,
            4.3033,
            4.387,
            4.47,
            4.553,
            4.638,
            4.722,
            4.805,
            4.889,
            4.972,
            5.056,
            5.14,
            5.223,
            5.307,
            5.392,
            5.475,
            5.559,
            5.642,
            5.725,
            5.809,
            5.893,
            5.977,
            6.06,
            6.145,
            6.229,
            6.313,
            6.396,
            6.479,
            6.564,
            6.648,
            6.732,
            6.816,
            6.899,
            6.983,
            7.067,
            7.152,
            7.236,
            7.32,
            7.403,
            7.486,
            7.571,
            7.656,
            7.741,
            7.825,
            7.91,
            7.993,
            8.077,
            8.161,
            8.244
          ],
          [
            0.18707,
            0.19117,
            0.19527,
            0.20307,
            0.21797,
            0.24447,
            0.28937,
            0.36127,
            0.47287,
            0.57367,
            0.66567,
            0.75477,
            0.84327,
            0.93187,
            1.02077,
            1.10997,
            1.19947,
            1.28887,
            1.37857,
            1.46807,
            1.55747,
            1.64677,
            1.73597,
            1.82497,
            1.91397,
            2.00287,
            2.09177,
            2.18047,
            2.26877,
            2.35697,
            2.44497,
            2.53267,
            2.62027,
            2.70797,
            2.79577,
            2.88177,
            2.96867,
            3.05567,
            3.14267,
            3.22967,
            3.31567,
            3.40167,
            3.48767,
            3.57267,
            3.65967,
            3.74467,
            3.82967,
            3.91567,
            4.00067,
            4.08567,
            4.17067,
            4.25567,
            4.34067,
            4.42467,
            4.50867,
            4.59267,
            4.67667,
            4.76067,
            4.84567,
            4.92967,
            5.01267,
            5.09667,
            5.18067,
            5.26367,
            5.34767,
            5.43167,
            5.51567,
            5.59967,
            5.68267,
            5.76567,
            5.85067,
            5.93467,
            6.01767,
            6.10067,
            6.18467,
            6.26867,
            6.35267,
            6.43667,
            6.51967,
            6.60267,
            6.68767,
            6.77167,
            6.85567,
            6.93967,
            7.02267,
            7.10567,
            7.18867,
            7.27267,
            7.35667,
            7.44067,
            7.52467,
            7.60867,
            7.69167,
            7.77667,
            7.86067,
            7.94467,
            8.02867,
            8.11167,
            8.19467,
            8.27967
          ],
          [
            0.14637,
            0.15047,
            0.15457,
            0.16267,
            0.17787,
            0.20547,
            0.25237,
            0.32777,
            0.44517,
            0.55067,
            0.64557,
            0.73637,
            0.82587,
            0.91517,
            1.00467,
            1.09427,
            1.18437,
            1.27437,
            1.36467,
            1.45457,
            1.54467,
            1.63477,
            1.72467,
            1.81467,
            1.90467,
            1.99367,
            2.08367,
            2.17367,
            2.26267,
            2.35267,
            2.44067,
            2.52967,
            2.61867,
            2.70667,
            2.79467,
            2.88267,
            2.97067,
            3.05867,
            3.14667,
            3.23467,
            3.32167,
            3.40967,
            3.49667,
            3.58367,
            3.67067,
            3.75567,
            3.84267,
            3.92967,
            4.01567,
            4.10167,
            4.18767,
            4.27367,
            4.35867,
            4.44467,
            4.52867,
            4.61467,
            4.69967,
            4.78467,
            4.86967,
            4.95467,
            5.03967,
            5.12467,
            5.20867,
            5.29267,
            5.37667,
            5.46167,
            5.54667,
            5.63067,
            5.71567,
            5.79967,
            5.88267,
            5.96667,
            6.04967,
            6.13367,
            6.21767,
            6.30067,
            6.38467,
            6.46967,
            6.55367,
            6.63667,
            6.71967,
            6.80367,
            6.88867,
            6.97167,
            7.05467,
            7.13767,
            7.22167,
            7.30667,
            7.39067,
            7.47467,
            7.55767,
            7.64167,
            7.72567,
            7.80967,
            7.89367,
            7.97767,
            8.06167,
            8.14567,
            8.22867,
            8.31067
          ],
          [
            0.087,
            0.091,
            0.095,
            0.104,
            0.119,
            0.148,
            0.197,
            0.277,
            0.401,
            0.513,
            0.612,
            0.705,
            0.796,
            0.887,
            0.977,
            1.067,
            1.158,
            1.249,
            1.34,
            1.43,
            1.521,
            1.612,
            1.703,
            1.794,
            1.884,
            1.975,
            2.065,
            2.156,
            2.246,
            2.336,
            2.427,
            2.516,
            2.606,
            2.696,
            2.785,
            2.874,
            2.963,
            3.052,
            3.141,
            3.23,
            3.318,
            3.407,
            3.496,
            3.584,
            3.672,
            3.76,
            3.846,
            3.933,
            4.021,
            4.109,
            4.196,
            4.283,
            4.37,
            4.457,
            4.544,
            4.63,
            4.716,
            4.803,
            4.888,
            4.974,
            5.059,
            5.146,
            5.231,
            5.317,
            5.403,
            5.489,
            5.574,
            5.659,
            5.745,
            5.83,
            5.915,
            6.0,
            6.084,
            6.169,
            6.253,
            6.337,
            6.421,
            6.506,
            6.592,
            6.676,
            6.76,
            6.844,
            6.928,
            7.011,
            7.095,
            7.179,
            7.263,
            7.346,
            7.43,
            7.514,
            7.598,
            7.681,
            7.765,
            7.849,
            7.933,
            8.017,
            8.1,
            8.185,
            8.269,
            8.352
          ]
        ]
      },
      "fall_transition,delay_template17x100": {
        "index_1": [
          0.001,
          0.013,
          0.026,
          0.072,
          0.216,
          0.432,
          0.864,
          1.296,
          2.5,
          3.125,
          3.75,
          4.5,
          5.5,
          6.75,
          8.5,
          10.0,
          12.0
        ],
        "index_2": [
          0.0,
          0.00715,
          0.01431,
          0.02861,
          0.05722,
          0.11445,
          0.22889,
          0.45779,
          0.91558,
          1.41558,
          1.91558,
          2.41558,
          2.91558,
          3.41558,
          3.91558,
          4.41558,
          4.91558,
          5.41558,
          5.91558,
          6.41558,
          6.91558,
          7.41558,
          7.91558,
          8.41558,
          8.91558,
          9.41558,
          9.91558,
          10.41558,
          10.91558,
          11.41558,
          11.91558,
          12.41558,
          12.91558,
          13.41558,
          13.91558,
          14.41558,
          14.91558,
          15.41558,
          15.91558,
          16.41558,
          16.91558,
          17.41558,
          17.91558,
          18.41558,
          18.91558,
          19.41558,
          19.91558,
          20.41558,
          20.91558,
          21.41558,
          21.91558,
          22.41558,
          22.91558,
          23.41558,
          23.91558,
          24.41558,
          24.91558,
          25.41558,
          25.91558,
          26.41558,
          26.91558,
          27.41558,
          27.91558,
          28.41558,
          28.91558,
          29.41558,
          29.91558,
          30.41558,
          30.91558,
          31.41558,
          31.91558,
          32.41558,
          32.91558,
          33.41558,
          33.91558,
          34.41558,
          34.91558,
          35.41558,
          35.91558,
          36.41558,
          36.91558,
          37.41558,
          37.91558,
          38.41558,
          38.91558,
          39.41558,
          39.91558,
          40.41558,
          40.91558,
          41.41558,
          41.91558,
          42.41558,
          42.91558,
          43.41558,
          43.91558,
          44.41558,
          44.91558,
          45.41558,
          45.91558,
          46.41558
        ],
        "values": [
          [
            0.03781,
            0.03986,
            0.0418,
            0.04549,
            0.0521,
            0.06386,
            0.08543,
            0.12874,
            0.21875,
            0.32049,
            0.42475,
            0.52965,
            0.63471,
            0.74089,
            0.84676,
            0.95221,
            1.05877,
            1.16464,
            1.27063,
            1.37689,
            1.48286,
            1.5892,
            1.69478,
            1.80097,
            1.90693,
            2.01276,
            2.11907,
            2.22466,
            2.33131,
            2.43717,
            2.54273,
            2.64915,
            2.75786,
            2.86098,
            2.9673,
            3.0736,
            3.1816,
            3.2843,
            3.3909,
            3.5005,
            3.6032,
            3.7085,
            3.8143,
            3.9202,
            4.0261,
            4.1339,
            4.2435,
            4.3495,
            4.45,
            4.5581,
            4.6624,
            4.7691,
            4.8797,
            4.9805,
            5.0921,
            5.1948,
            5.2982,
            5.4056,
            5.5104,
            5.6166,
            5.7283,
            5.8353,
            5.9404,
            6.0409,
            6.1492,
            6.2535,
            6.3658,
            6.4718,
            6.5781,
            6.6779,
            6.7826,
            6.8917,
            6.9941,
            7.1094,
            7.2119,
            7.3144,
            7.4208,
            7.5254,
            7.63,
            7.7419,
            7.843,
            7.9497,
            8.0561,
            8.1596,
            8.2761,
            8.3826,
            8.4815,
            8.5871,
            8.6944,
            8.7998,
            8.9042,
            9.0079,
            9.1229,
            9.2294,
            9.3332,
            9.4412,
            9.5427,
            9.6474,
            9.7515,
            9.8593
          ],
          [
            0.03781,
            0.03985,
            0.0418,
            0.04548,
            0.05209,
            0.06388,
            0.0854,
            0.12871,
            0.21876,
            0.32056,
            0.42468,
            0.52945,
            0.63516,
            0.74052,
            0.84721,
            0.95235,
            1.05872,
            1.16439,
            1.27028,
            1.37664,
            1.48303,
            1.58865,
            1.6949,
            1.80092,
            1.90692,
            2.01298,
            2.11909,
            2.22473,
            2.33106,
            2.43945,
            2.54313,
            2.64923,
            2.75496,
            2.8611,
            2.9694,
            3.076,
            3.1787,
            3.2878,
            3.3926,
            3.5009,
            3.6067,
            3.7096,
            3.8158,
            3.9222,
            4.0273,
            4.1323,
            4.2392,
            4.3486,
            4.4514,
            4.5561,
            4.663,
            4.7693,
            4.8754,
            4.9798,
            5.0867,
            5.1925,
            5.3001,
            5.4073,
            5.5179,
            5.6194,
            5.7292,
            5.8309,
            5.9365,
            6.0416,
            6.1495,
            6.2541,
            6.3605,
            6.4719,
            6.5716,
            6.6767,
            6.7893,
            6.8911,
            7.0017,
            7.1089,
            7.2146,
            7.3212,
            7.4192,
            7.5239,
            7.6294,
            7.7369,
            7.8433,
            7.9578,
            8.0556,
            8.1698,
            8.2685,
            8.3759,
            8.4808,
            8.5873,
            8.6916,
            8.8071,
            8.9126,
            9.0114,
            9.1256,
            9.2213,
            9.329,
            9.4455,
            9.5401,
            9.6522,
            9.7519,
            9.8588
          ],
          [
            0.0378,
            0.03988,
            0.0418,
            0.04547,
            0.0521,
            0.06386,
            0.08544,
            0.12871,
            0.21876,
            0.32072,
            0.42475,
            0.52965,
            0.63473,
            0.74079,
            0.84668,
            0.95271,
            1.05859,
            1.16496,
            1.27044,
            1.37681,
            1.48288,
            1.58933,
            1.69455,
            1.80064,
            1.90651,
            2.01286,
            2.1191,
            2.22716,
            2.33324,
            2.43722,
            2.54284,
            2.64914,
            2.75786,
            2.8603,
            2.9692,
            3.0739,
            3.179,
            3.2855,
            3.3941,
            3.4975,
            3.604,
            3.709,
            3.8189,
            3.9213,
            4.0275,
            4.1331,
            4.2401,
            4.3454,
            4.4502,
            4.5621,
            4.6639,
            4.774,
            4.8743,
            4.9829,
            5.0875,
            5.1929,
            5.2997,
            5.4055,
            5.5155,
            5.6169,
            5.7231,
            5.8284,
            5.936,
            6.0422,
            6.1465,
            6.2559,
            6.366,
            6.4721,
            6.5726,
            6.6843,
            6.7858,
            6.8946,
            6.9967,
            7.1022,
            7.21,
            7.3162,
            7.418,
            7.5311,
            7.6355,
            7.7357,
            7.8441,
            7.9486,
            8.0565,
            8.1646,
            8.2762,
            8.3827,
            8.4803,
            8.5849,
            8.6967,
            8.8007,
            8.9119,
            9.0188,
            9.1154,
            9.2232,
            9.3375,
            9.4395,
            9.5425,
            9.6489,
            9.7554,
            9.8592
          ],
          [
            0.0378,
            0.03988,
            0.04179,
            0.04549,
            0.05211,
            0.06391,
            0.08553,
            0.12875,
            0.21885,
            0.32051,
            0.4247,
            0.52966,
            0.63453,
            0.74082,
            0.8468,
            0.95274,
            1.05859,
            1.16499,
            1.27056,
            1.37671,
            1.4828,
            1.58857,
            1.69485,
            1.80024,
            1.90796,
            2.01266,
            2.11884,
            2.22477,
            2.33207,
            2.43751,
            2.54253,
            2.64894,
            2.7555,
            2.8607,
            2.9699,
            3.0736,
            3.1792,
            3.2851,
            3.3906,
            3.4969,
            3.6036,
            3.712,
            3.8187,
            3.9203,
            4.0283,
            4.1345,
            4.2387,
            4.3496,
            4.4557,
            4.5587,
            4.6621,
            4.7719,
            4.8745,
            4.983,
            5.0885,
            5.1986,
            5.3039,
            5.4087,
            5.516,
            5.6158,
            5.7233,
            5.8331,
            5.9362,
            6.0428,
            6.1479,
            6.2597,
            6.366,
            6.4668,
            6.5782,
            6.6843,
            6.7903,
            6.8965,
            7.0025,
            7.1085,
            7.208,
            7.3142,
            7.4205,
            7.5269,
            7.6337,
            7.7393,
            7.846,
            7.9516,
            8.0581,
            8.1666,
            8.274,
            8.3804,
            8.4859,
            8.5925,
            8.692,
            8.8011,
            8.9057,
            9.0191,
            9.1159,
            9.2192,
            9.3292,
            9.4354,
            9.541,
            9.6476,
            9.7542,
            9.8598
          ],
          [
            0.04169,
            0.0437,
            0.04562,
            0.04923,
            0.05574,
            0.06734,
            0.08846,
            0.1308,
            0.21985,
            0.32111,
            0.42508,
            0.52967,
            0.63527,
            0.74083,
            0.84658,
            0.95238,
            1.05809,
            1.16483,
            1.27072,
            1.37682,
            1.48283,
            1.58865,
            1.69503,
            1.80059,
            1.90724,
            2.01299,
            2.1185,
            2.2245,
            2.3314,
            2.4363,
            2.5447,
            2.6485,
            2.7542,
            2.864,
            2.9698,
            3.0738,
            3.1791,
            3.2883,
            3.3914,
            3.4976,
            3.6038,
            3.7096,
            3.8144,
            3.9204,
            4.0261,
            4.1339,
            4.2409,
            4.3442,
            4.4506,
            4.5561,
            4.662,
            4.7713,
            4.8754,
            4.9815,
            5.0874,
            5.1936,
            5.2989,
            5.4048,
            5.5124,
            5.6189,
            5.7232,
            5.8326,
            5.9363,
            6.0406,
            6.1489,
            6.2545,
            6.3586,
            6.4721,
            6.5783,
            6.6765,
            6.7877,
            6.8969,
            7.0039,
            7.107,
            7.2059,
            7.3154,
            7.4188,
            7.5266,
            7.6333,
            7.7387,
            7.8442,
            7.9499,
            8.0543,
            8.1648,
            8.2712,
            8.3796,
            8.486,
            8.5888,
            8.6937,
            8.7961,
            8.9093,
            9.0158,
            9.1255,
            9.231,
            9.3375,
            9.4342,
            9.5408,
            9.6493,
            9.751,
            9.8593
          ],
          [
            0.05359,
            0.05562,
            0.05755,
            0.06121,
            0.0678,
            0.07935,
            0.09988,
            0.14002,
            0.22532,
            0.32456,
            0.42677,
            0.53041,
            0.63567,
            0.74063,
            0.84674,
            0.9528,
            1.05856,
            1.16492,
            1.27085,
            1.377,
            1.4831,
            1.589,
            1.696,
            1.8022,
            1.908,
            2.0127,
            2.1188,
            2.2248,
            2.3312,
            2.437,
            2.5429,
            2.6516,
            2.7578,
            2.8639,
            2.9668,
            3.0731,
            3.1794,
            3.2855,
            3.3913,
            3.4975,
            3.6035,
            3.7092,
            3.8177,
            3.9255,
            4.0266,
            4.1321,
            4.2382,
            4.3499,
            4.4511,
            4.5623,
            4.6629,
            4.7739,
            4.875,
            4.9801,
            5.0861,
            5.1965,
            5.3003,
            5.4044,
            5.5111,
            5.6173,
            5.7231,
            5.8287,
            5.9345,
            6.0413,
            6.1479,
            6.2554,
            6.3626,
            6.4698,
            6.5769,
            6.6843,
            6.7831,
            6.8884,
            6.9941,
            7.1,
            7.206,
            7.3211,
            7.4276,
            7.5332,
            7.6397,
            7.7452,
            7.8517,
            7.9573,
            8.0638,
            8.1613,
            8.2679,
            8.3744,
            8.48,
            8.5866,
            8.6932,
            8.7988,
            8.9054,
            9.012,
            9.1176,
            9.2292,
            9.3294,
            9.4351,
            9.5417,
            9.6483,
            9.759,
            9.8646
          ],
          [
            0.07699,
            0.07909,
            0.08111,
            0.08505,
            0.0921,
            0.1043,
            0.1253,
            0.1637,
            0.2442,
            0.3381,
            0.4361,
            0.5374,
            0.6399,
            0.7441,
            0.8488,
            0.9541,
            1.0594,
            1.1653,
            1.2711,
            1.3765,
            1.4828,
            1.5889,
            1.6944,
            1.8001,
            1.9071,
            2.0128,
            2.1204,
            2.2258,
            2.3309,
            2.4372,
            2.5425,
            2.6486,
            2.755,
            2.8612,
            2.9673,
            3.0732,
            3.1792,
            3.2852,
            3.3948,
            3.5007,
            3.6068,
            3.709,
            3.8156,
            3.9213,
            4.0278,
            4.1339,
            4.2398,
            4.3451,
            4.4525,
            4.5569,
            4.6628,
            4.7696,
            4.8784,
            4.9871,
            5.0934,
            5.193,
            5.2985,
            5.4048,
            5.5103,
            5.6231,
            5.7292,
            5.8298,
            5.9412,
            6.0476,
            6.1537,
            6.2596,
            6.3597,
            6.4654,
            6.5733,
            6.6777,
            6.7843,
            6.8914,
            6.9971,
            7.1037,
            7.2093,
            7.3159,
            7.4207,
            7.5243,
            7.6321,
            7.7377,
            7.8473,
            7.9538,
            8.0594,
            8.165,
            8.2715,
            8.3724,
            8.4891,
            8.5832,
            8.6897,
            8.7965,
            8.9019,
            9.0082,
            9.1138,
            9.2202,
            9.3257,
            9.4323,
            9.5379,
            9.6445,
            9.75,
            9.8565
          ],
          [
            0.0969,
            0.099,
            0.1011,
            0.1053,
            0.1128,
            0.1257,
            0.1475,
            0.1865,
            0.2657,
            0.358,
            0.4538,
            0.5522,
            0.6525,
            0.754,
            0.8568,
            0.9601,
            1.064,
            1.1686,
            1.2738,
            1.3787,
            1.4842,
            1.5895,
            1.6955,
            1.8012,
            1.9072,
            2.013,
            2.1192,
            2.2245,
            2.3305,
            2.4363,
            2.5428,
            2.6494,
            2.7557,
            2.862,
            2.9681,
            3.0736,
            3.1798,
            3.2853,
            3.3899,
            3.4964,
            3.603,
            3.7087,
            3.8154,
            3.921,
            4.0275,
            4.1337,
            4.2397,
            4.3457,
            4.4512,
            4.5572,
            4.6682,
            4.7744,
            4.8751,
            4.9807,
            5.0927,
            5.1937,
            5.2992,
            5.4069,
            5.5132,
            5.6178,
            5.7239,
            5.8308,
            5.9372,
            6.0424,
            6.1494,
            6.2559,
            6.3615,
            6.4659,
            6.5718,
            6.6774,
            6.7836,
            6.8893,
            7.0026,
            7.1012,
            7.2071,
            7.321,
            7.4192,
            7.533,
            7.6396,
            7.7451,
            7.8421,
            7.9574,
            8.0637,
            8.16,
            8.2661,
            8.3826,
            8.48,
            8.5866,
            8.6932,
            8.7988,
            8.9055,
            9.0122,
            9.1176,
            9.2308,
            9.33,
            9.4428,
            9.5405,
            9.644,
            9.7518,
            9.8607
          ],
          [
            0.143,
            0.1451,
            0.1473,
            0.1518,
            0.1602,
            0.175,
            0.1995,
            0.2409,
            0.3194,
            0.4103,
            0.5063,
            0.6051,
            0.7051,
            0.8051,
            0.9058,
            1.0059,
            1.1063,
            1.2072,
            1.309,
            1.4107,
            1.5138,
            1.6153,
            1.7194,
            1.8213,
            1.9251,
            2.0295,
            2.1321,
            2.237,
            2.3433,
            2.4452,
            2.5525,
            2.6565,
            2.7611,
            2.8652,
            2.9698,
            3.0748,
            3.1807,
            3.2866,
            3.3924,
            3.4981,
            3.6032,
            3.7089,
            3.8146,
            3.9215,
            4.0277,
            4.1334,
            4.2396,
            4.3454,
            4.4512,
            4.556,
            4.6613,
            4.7684,
            4.8773,
            4.9829,
            5.0901,
            5.1946,
            5.2992,
            5.408,
            5.5154,
            5.6191,
            5.7225,
            5.8292,
            5.9349,
            6.0406,
            6.1453,
            6.252,
            6.3586,
            6.4643,
            6.5689,
            6.6756,
            6.7822,
            6.8889,
            6.9956,
            7.1012,
            7.2078,
            7.3142,
            7.4209,
            7.5265,
            7.6321,
            7.7377,
            7.8434,
            7.949,
            8.0537,
            8.1622,
            8.2679,
            8.3745,
            8.4892,
            8.586,
            8.6916,
            8.7983,
            8.9039,
            9.0096,
            9.1152,
            9.2223,
            9.328,
            9.4386,
            9.5422,
            9.6478,
            9.7544,
            9.8609
          ],
          [
            0.1639,
            0.1661,
            0.1683,
            0.1728,
            0.1814,
            0.1971,
            0.2229,
            0.2657,
            0.3449,
            0.4351,
            0.5304,
            0.6296,
            0.7303,
            0.8319,
            0.9334,
            1.0347,
            1.1358,
            1.2366,
            1.3373,
            1.4392,
            1.5388,
            1.6406,
            1.7418,
            1.8442,
            1.947,
            2.0498,
            2.1521,
            2.254,
            2.3568,
            2.4612,
            2.5638,
            2.6685,
            2.7726,
            2.8762,
            2.9803,
            3.0837,
            3.1891,
            3.2961,
            3.3994,
            3.5029,
            3.6092,
            3.7147,
            3.8197,
            3.923,
            4.0283,
            4.1344,
            4.2406,
            4.3466,
            4.4524,
            4.5581,
            4.6639,
            4.7694,
            4.8746,
            4.9799,
            5.0869,
            5.1932,
            5.3,
            5.4057,
            5.5124,
            5.618,
            5.7237,
            5.8294,
            5.935,
            6.0408,
            6.1465,
            6.2522,
            6.3569,
            6.4626,
            6.5703,
            6.6769,
            6.7826,
            6.8892,
            6.9949,
            7.1016,
            7.2073,
            7.314,
            7.4197,
            7.5262,
            7.6319,
            7.7377,
            7.8464,
            7.9581,
            8.0627,
            8.1594,
            8.2719,
            8.3775,
            8.4883,
            8.586,
            8.6946,
            8.8002,
            8.9048,
            9.0095,
            9.1141,
            9.2227,
            9.3264,
            9.4341,
            9.5387,
            9.6461,
            9.7528,
            9.8574
          ],
          [
            0.1837,
            0.1858,
            0.188,
            0.1926,
            0.2016,
            0.2178,
            0.2449,
            0.2891,
            0.3694,
            0.459,
            0.5542,
            0.6531,
            0.7544,
            0.8565,
            0.9592,
            1.0615,
            1.164,
            1.2658,
            1.3672,
            1.4682,
            1.5689,
            1.6695,
            1.7725,
            1.8714,
            1.9729,
            2.0744,
            2.1766,
            2.2784,
            2.3814,
            2.4836,
            2.5844,
            2.689,
            2.7907,
            2.8937,
            2.9976,
            3.1006,
            3.2038,
            3.3082,
            3.4114,
            3.517,
            3.6202,
            3.7241,
            3.8274,
            3.9371,
            4.0377,
            4.1423,
            4.2502,
            4.354,
            4.4576,
            4.5633,
            4.6685,
            4.7734,
            4.8786,
            4.9839,
            5.0872,
            5.1946,
            5.3,
            5.4065,
            5.512,
            5.6186,
            5.7242,
            5.8298,
            5.9355,
            6.0401,
            6.1468,
            6.2515,
            6.3572,
            6.4649,
            6.5716,
            6.6772,
            6.7841,
            6.8907,
            6.9964,
            7.1031,
            7.2088,
            7.3145,
            7.4203,
            7.5259,
            7.6315,
            7.7372,
            7.8429,
            7.9476,
            8.054,
            8.1599,
            8.2646,
            8.3709,
            8.4779,
            8.5836,
            8.6921,
            8.7978,
            8.9025,
            9.0092,
            9.1159,
            9.2215,
            9.3282,
            9.4338,
            9.5405,
            9.6461,
            9.7527,
            9.8583
          ],
          [
            0.2063,
            0.2083,
            0.2105,
            0.2151,
            0.2243,
            0.2412,
            0.2696,
            0.3155,
            0.3972,
            0.4872,
            0.5814,
            0.6798,
            0.7812,
            0.8841,
            0.9878,
            1.0914,
            1.1949,
            1.2983,
            1.4012,
            1.5037,
            1.6054,
            1.7067,
            1.8077,
            1.9085,
            2.009,
            2.1112,
            2.2111,
            2.3113,
            2.413,
            2.5141,
            2.6158,
            2.7174,
            2.8195,
            2.9231,
            3.0231,
            3.1284,
            3.2293,
            3.3326,
            3.4338,
            3.5377,
            3.6414,
            3.7456,
            3.848,
            3.9501,
            4.0553,
            4.1594,
            4.2626,
            4.3657,
            4.4719,
            4.5771,
            4.6793,
            4.786,
            4.8914,
            4.9959,
            5.0997,
            5.2035,
            5.3071,
            5.4109,
            5.5169,
            5.6228,
            5.728,
            5.8338,
            5.9402,
            6.0454,
            6.1507,
            6.2549,
            6.3603,
            6.4645,
            6.5721,
            6.6776,
            6.7831,
            6.8897,
            6.9964,
            7.1019,
            7.2086,
            7.3143,
            7.4199,
            7.5255,
            7.6322,
            7.7358,
            7.8426,
            7.9472,
            8.052,
            8.1597,
            8.2664,
            8.3739,
            8.4806,
            8.5866,
            8.6949,
            8.8015,
            8.9083,
            9.0118,
            9.1185,
            9.2252,
            9.33,
            9.4376,
            9.5422,
            9.6478,
            9.7535,
            9.8601
          ],
          [
            0.2347,
            0.2368,
            0.239,
            0.2436,
            0.253,
            0.2705,
            0.3005,
            0.349,
            0.4326,
            0.5229,
            0.6173,
            0.7153,
            0.8164,
            0.9195,
            1.0236,
            1.1284,
            1.2334,
            1.3378,
            1.4422,
            1.5459,
            1.6496,
            1.7529,
            1.8555,
            1.9576,
            2.0591,
            2.1598,
            2.2612,
            2.362,
            2.4636,
            2.5647,
            2.6643,
            2.765,
            2.8648,
            2.9663,
            3.0671,
            3.1685,
            3.2699,
            3.3723,
            3.4744,
            3.5754,
            3.6801,
            3.7786,
            3.8856,
            3.9845,
            4.0875,
            4.1906,
            4.2918,
            4.3968,
            4.4993,
            4.6017,
            4.7063,
            4.8098,
            4.9164,
            5.0171,
            5.1198,
            5.2247,
            5.3278,
            5.4309,
            5.5359,
            5.6399,
            5.7462,
            5.8506,
            5.9549,
            6.0591,
            6.1616,
            6.2693,
            6.375,
            6.4797,
            6.5843,
            6.687,
            6.7917,
            6.8947,
            7.0007,
            7.1068,
            7.2129,
            7.319,
            7.4241,
            7.5293,
            7.6354,
            7.7406,
            7.846,
            7.9514,
            8.0568,
            8.1602,
            8.2676,
            8.3731,
            8.4776,
            8.5842,
            8.6908,
            8.7983,
            8.9039,
            9.0106,
            9.1163,
            9.222,
            9.3287,
            9.4343,
            9.5409,
            9.6466,
            9.7523,
            9.858
          ],
          [
            0.2684,
            0.2706,
            0.2728,
            0.2774,
            0.2869,
            0.3052,
            0.3368,
            0.3881,
            0.4744,
            0.5661,
            0.6606,
            0.7583,
            0.859,
            0.9618,
            1.066,
            1.1721,
            1.2776,
            1.3836,
            1.4898,
            1.5954,
            1.7008,
            1.8057,
            1.91,
            2.0139,
            2.1174,
            2.2204,
            2.323,
            2.4249,
            2.5266,
            2.6278,
            2.7282,
            2.8292,
            2.9305,
            3.0298,
            3.1322,
            3.2316,
            3.3351,
            3.4338,
            3.5335,
            3.6332,
            3.734,
            3.835,
            3.9359,
            4.0401,
            4.1403,
            4.2415,
            4.3437,
            4.4441,
            4.5497,
            4.6512,
            4.7497,
            4.8564,
            4.9551,
            5.058,
            5.161,
            5.2629,
            5.367,
            5.47,
            5.5732,
            5.6746,
            5.7789,
            5.8822,
            5.9867,
            6.0904,
            6.192,
            6.2957,
            6.4013,
            6.5059,
            6.6078,
            6.7149,
            6.8209,
            6.9269,
            7.031,
            7.1361,
            7.2333,
            7.3375,
            7.4417,
            7.5523,
            7.6544,
            7.758,
            7.8604,
            7.965,
            8.0708,
            8.1765,
            8.2821,
            8.3867,
            8.4917,
            8.5967,
            8.7007,
            8.8057,
            8.9097,
            9.0127,
            9.1197,
            9.2257,
            9.3317,
            9.438,
            9.5432,
            9.6496,
            9.755,
            9.8603
          ],
          [
            0.3133,
            0.3154,
            0.3176,
            0.3221,
            0.3319,
            0.3509,
            0.3845,
            0.4396,
            0.5301,
            0.6234,
            0.7184,
            0.8167,
            0.9174,
            1.0197,
            1.1248,
            1.23,
            1.3371,
            1.4433,
            1.5501,
            1.6587,
            1.7648,
            1.8723,
            1.9781,
            2.0841,
            2.1895,
            2.295,
            2.3996,
            2.5043,
            2.6081,
            2.7111,
            2.8143,
            2.9165,
            3.0188,
            3.1212,
            3.2226,
            3.3232,
            3.4238,
            3.5244,
            3.6261,
            3.728,
            3.8261,
            3.9271,
            4.0271,
            4.1293,
            4.2267,
            4.333,
            4.4282,
            4.5287,
            4.6283,
            4.7299,
            4.8314,
            4.9321,
            5.0321,
            5.136,
            5.2359,
            5.3379,
            5.4369,
            5.5409,
            5.6411,
            5.745,
            5.85,
            5.949,
            6.048,
            6.154,
            6.253,
            6.357,
            6.458,
            6.561,
            6.665,
            6.766,
            6.87,
            6.973,
            7.077,
            7.179,
            7.28,
            7.384,
            7.489,
            7.593,
            7.696,
            7.807,
            7.902,
            8.004,
            8.11,
            8.219,
            8.318,
            8.42,
            8.528,
            8.632,
            8.739,
            8.846,
            8.949,
            9.053,
            9.157,
            9.261,
            9.358,
            9.463,
            9.575,
            9.678,
            9.781,
            9.885
          ],
          [
            0.35,
            0.3521,
            0.3542,
            0.3588,
            0.3686,
            0.3882,
            0.4233,
            0.4812,
            0.5756,
            0.6705,
            0.766,
            0.865,
            0.9659,
            1.0691,
            1.1728,
            1.2795,
            1.3858,
            1.4933,
            1.601,
            1.7082,
            1.8163,
            1.925,
            2.033,
            2.14,
            2.247,
            2.354,
            2.46,
            2.566,
            2.671,
            2.776,
            2.879,
            2.983,
            3.086,
            3.19,
            3.293,
            3.396,
            3.499,
            3.6,
            3.702,
            3.804,
            3.905,
            4.005,
            4.107,
            4.208,
            4.309,
            4.41,
            4.508,
            4.61,
            4.711,
            4.81,
            4.912,
            5.01,
            5.115,
            5.212,
            5.311,
            5.41,
            5.511,
            5.613,
            5.713,
            5.814,
            5.915,
            6.017,
            6.119,
            6.218,
            6.321,
            6.421,
            6.525,
            6.626,
            6.725,
            6.831,
            6.935,
            7.035,
            7.133,
            7.237,
            7.344,
            7.439,
            7.543,
            7.643,
            7.746,
            7.853,
            7.952,
            8.055,
            8.159,
            8.263,
            8.366,
            8.468,
            8.569,
            8.671,
            8.775,
            8.881,
            8.984,
            9.088,
            9.191,
            9.294,
            9.397,
            9.502,
            9.604,
            9.711,
            9.814,
            9.914
          ],
          [
            0.398,
            0.399,
            0.401,
            0.406,
            0.415,
            0.436,
            0.473,
            0.534,
            0.634,
            0.731,
            0.829,
            0.927,
            1.03,
            1.133,
            1.238,
            1.343,
            1.45,
            1.558,
            1.666,
            1.774,
            1.884,
            1.993,
            2.101,
            2.208,
            2.317,
            2.426,
            2.534,
            2.642,
            2.748,
            2.856,
            2.962,
            3.068,
            3.173,
            3.278,
            3.383,
            3.487,
            3.591,
            3.695,
            3.799,
            3.902,
            4.005,
            4.107,
            4.209,
            4.31,
            4.412,
            4.514,
            4.616,
            4.717,
            4.818,
            4.917,
            5.016,
            5.116,
            5.22,
            5.321,
            5.421,
            5.517,
            5.622,
            5.722,
            5.821,
            5.922,
            6.023,
            6.12,
            6.225,
            6.326,
            6.421,
            6.521,
            6.621,
            6.722,
            6.822,
            6.924,
            7.024,
            7.126,
            7.226,
            7.33,
            7.431,
            7.527,
            7.633,
            7.733,
            7.832,
            7.937,
            8.035,
            8.137,
            8.243,
            8.348,
            8.45,
            8.548,
            8.646,
            8.752,
            8.859,
            8.952,
            9.056,
            9.159,
            9.259,
            9.362,
            9.466,
            9.569,
            9.669,
            9.775,
            9.879,
            9.983
          ]
        ]
      },
      "related_pin": "A",
      "rise_transition,delay_template17x100": {
        "index_1": [
          0.001,
          0.013,
          0.026,
          0.072,
          0.216,
          0.432,
          0.864,
          1.296,
          2.5,
          3.125,
          3.75,
          4.5,
          5.5,
          6.75,
          8.5,
          10.0,
          12.0
        ],
        "index_2": [
          0.0,
          0.00715,
          0.01431,
          0.02861,
          0.05722,
          0.11445,
          0.22889,
          0.45779,
          0.91558,
          1.41558,
          1.91558,
          2.41558,
          2.91558,
          3.41558,
          3.91558,
          4.41558,
          4.91558,
          5.41558,
          5.91558,
          6.41558,
          6.91558,
          7.41558,
          7.91558,
          8.41558,
          8.91558,
          9.41558,
          9.91558,
          10.41558,
          10.91558,
          11.41558,
          11.91558,
          12.41558,
          12.91558,
          13.41558,
          13.91558,
          14.41558,
          14.91558,
          15.41558,
          15.91558,
          16.41558,
          16.91558,
          17.41558,
          17.91558,
          18.41558,
          18.91558,
          19.41558,
          19.91558,
          20.41558,
          20.91558,
          21.41558,
          21.91558,
          22.41558,
          22.91558,
          23.41558,
          23.91558,
          24.41558,
          24.91558,
          25.41558,
          25.91558,
          26.41558,
          26.91558,
          27.41558,
          27.91558,
          28.41558,
          28.91558,
          29.41558,
          29.91558,
          30.41558,
          30.91558,
          31.41558,
          31.91558,
          32.41558,
          32.91558,
          33.41558,
          33.91558,
          34.41558,
          34.91558,
          35.41558,
          35.91558,
          36.41558,
          36.91558,
          37.41558,
          37.91558,
          38.41558,
          38.91558,
          39.41558,
          39.91558,
          40.41558,
          40.91558,
          41.41558,
          41.91558,
          42.41558,
          42.91558,
          43.41558,
          43.91558,
          44.41558,
          44.91558,
          45.41558,
          45.91558,
          46.41558
        ],
        "values": [
          [
            0.03891,
            0.04048,
            0.0422,
            0.04558,
            0.05218,
            0.06483,
            0.09068,
            0.14537,
            0.25879,
            0.3856,
            0.51384,
            0.64245,
            0.77117,
            0.90026,
            1.02902,
            1.15892,
            1.28735,
            1.41775,
            1.54553,
            1.67556,
            1.80382,
            1.9325,
            2.0627,
            2.19037,
            2.32028,
            2.44958,
            2.57943,
            2.70838,
            2.83653,
            2.96599,
            3.09572,
            3.22351,
            3.35324,
            3.48267,
            3.6126,
            3.7401,
            3.8686,
            3.9976,
            4.1266,
            4.2577,
            4.3895,
            4.5141,
            4.6429,
            4.7719,
            4.9011,
            5.0332,
            5.1599,
            5.2883,
            5.4188,
            5.5457,
            5.6783,
            5.8054,
            5.934,
            6.0665,
            6.1915,
            6.3227,
            6.457,
            6.5827,
            6.711,
            6.8369,
            6.9679,
            7.0973,
            7.227,
            7.3567,
            7.4865,
            7.6147,
            7.7436,
            7.8723,
            8.0,
            8.1271,
            8.2562,
            8.3883,
            8.5174,
            8.6475,
            8.7758,
            8.903,
            9.0303,
            9.1616,
            9.291,
            9.4286,
            9.5503,
            9.6826,
            9.81,
            9.9371,
            10.0649,
            10.1998,
            10.3248,
            10.4567,
            10.5848,
            10.717,
            10.8481,
            10.9703,
            11.0954,
            11.2315,
            11.3587,
            11.4838,
            11.6229,
            11.743,
            11.8706,
            12.0077
          ],
          [
            0.03884,
            0.04051,
            0.0422,
            0.04561,
            0.05216,
            0.0649,
            0.09061,
            0.1454,
            0.2587,
            0.3859,
            0.51368,
            0.64212,
            0.77102,
            0.90014,
            1.02995,
            1.15843,
            1.28764,
            1.41762,
            1.54522,
            1.67483,
            1.8037,
            1.93231,
            2.0614,
            2.19005,
            2.32012,
            2.44831,
            2.5783,
            2.70773,
            2.83755,
            2.96535,
            3.09419,
            3.22299,
            3.35254,
            3.48101,
            3.6117,
            3.7403,
            3.8693,
            3.997,
            4.127,
            4.2562,
            4.3845,
            4.5168,
            4.6439,
            4.7719,
            4.9012,
            5.0323,
            5.1622,
            5.2894,
            5.4162,
            5.5475,
            5.6752,
            5.8074,
            5.9329,
            6.0637,
            6.1925,
            6.3224,
            6.4546,
            6.5803,
            6.7114,
            6.838,
            6.9644,
            7.0963,
            7.2251,
            7.3547,
            7.4895,
            7.6166,
            7.7417,
            7.8711,
            7.9997,
            8.1306,
            8.2606,
            8.3864,
            8.5168,
            8.6453,
            8.7724,
            8.9017,
            9.035,
            9.1616,
            9.2949,
            9.421,
            9.548,
            9.6771,
            9.8071,
            9.9372,
            10.0663,
            10.1906,
            10.3287,
            10.4529,
            10.5805,
            10.7063,
            10.8354,
            10.9694,
            11.1006,
            11.234,
            11.3567,
            11.4835,
            11.6139,
            11.746,
            11.8695,
            12.0023
          ],
          [
            0.03892,
            0.0405,
            0.04222,
            0.04559,
            0.05223,
            0.06488,
            0.09059,
            0.14529,
            0.25886,
            0.3859,
            0.51362,
            0.64231,
            0.77219,
            0.9001,
            1.02947,
            1.15876,
            1.28743,
            1.41637,
            1.54527,
            1.67466,
            1.80345,
            1.93242,
            2.06166,
            2.19114,
            2.32084,
            2.44946,
            2.58008,
            2.70738,
            2.83615,
            2.9651,
            3.0962,
            3.22438,
            3.35338,
            3.4825,
            3.6108,
            3.7396,
            3.8685,
            3.9977,
            4.1271,
            4.2569,
            4.3876,
            4.5151,
            4.6444,
            4.7726,
            4.9014,
            5.0316,
            5.1591,
            5.2895,
            5.4222,
            5.5479,
            5.6762,
            5.8083,
            5.9348,
            6.0644,
            6.1909,
            6.3228,
            6.4569,
            6.5796,
            6.7097,
            6.8366,
            6.9678,
            7.1001,
            7.2257,
            7.3632,
            7.4879,
            7.6124,
            7.7427,
            7.8682,
            8.004,
            8.1302,
            8.2576,
            8.3899,
            8.518,
            8.6442,
            8.7742,
            8.9033,
            9.0314,
            9.1606,
            9.2897,
            9.4188,
            9.5479,
            9.676,
            9.8062,
            9.9344,
            10.0645,
            10.1937,
            10.3218,
            10.451,
            10.5781,
            10.7083,
            10.8394,
            10.9678,
            11.1092,
            11.2397,
            11.3602,
            11.4839,
            11.6137,
            11.747,
            11.8709,
            12.002
          ],
          [
            0.03887,
            0.04051,
            0.04218,
            0.04559,
            0.05218,
            0.06485,
            0.09065,
            0.14545,
            0.25886,
            0.38598,
            0.51363,
            0.64245,
            0.77185,
            0.90087,
            1.02996,
            1.15916,
            1.28759,
            1.41802,
            1.54586,
            1.6741,
            1.80465,
            1.93266,
            2.06226,
            2.1907,
            2.32035,
            2.44979,
            2.57756,
            2.70792,
            2.83595,
            2.96492,
            3.09729,
            3.22329,
            3.3529,
            3.4817,
            3.6118,
            3.7404,
            3.8692,
            3.9971,
            4.1259,
            4.2553,
            4.3845,
            4.5158,
            4.643,
            4.7731,
            4.9008,
            5.0314,
            5.1625,
            5.2892,
            5.4183,
            5.5472,
            5.6758,
            5.8042,
            5.9341,
            6.065,
            6.1957,
            6.3269,
            6.452,
            6.5803,
            6.7105,
            6.8382,
            6.9658,
            7.0958,
            7.2243,
            7.3604,
            7.4834,
            7.6118,
            7.741,
            7.8736,
            7.9999,
            8.1282,
            8.2575,
            8.3904,
            8.5188,
            8.645,
            8.7762,
            8.9033,
            9.0426,
            9.1608,
            9.293,
            9.4253,
            9.5475,
            9.6766,
            9.808,
            9.935,
            10.0638,
            10.1926,
            10.3226,
            10.4527,
            10.5827,
            10.7157,
            10.8457,
            10.9737,
            11.099,
            11.2272,
            11.3684,
            11.4836,
            11.6168,
            11.754,
            11.8682,
            12.0014
          ],
          [
            0.04321,
            0.0447,
            0.04627,
            0.0495,
            0.05585,
            0.06811,
            0.09319,
            0.14702,
            0.25954,
            0.38569,
            0.51433,
            0.64258,
            0.77124,
            0.90038,
            1.02952,
            1.15821,
            1.28754,
            1.41631,
            1.54556,
            1.67496,
            1.80467,
            1.93303,
            2.06217,
            2.19187,
            2.32032,
            2.44879,
            2.58096,
            2.7078,
            2.836,
            2.9646,
            3.0945,
            3.2234,
            3.3534,
            3.4827,
            3.6137,
            3.7389,
            3.87,
            3.9979,
            4.1277,
            4.2568,
            4.3869,
            4.5145,
            4.6449,
            4.7721,
            4.9055,
            5.0326,
            5.1642,
            5.2911,
            5.4245,
            5.5467,
            5.6776,
            5.8046,
            5.9358,
            6.0629,
            6.193,
            6.324,
            6.4509,
            6.5784,
            6.7093,
            6.8385,
            6.9748,
            7.0965,
            7.2248,
            7.3579,
            7.4873,
            7.616,
            7.7429,
            7.8692,
            8.0083,
            8.1294,
            8.2585,
            8.3876,
            8.5157,
            8.6478,
            8.778,
            8.9111,
            9.0363,
            9.1595,
            9.2986,
            9.4268,
            9.547,
            9.6812,
            9.8134,
            9.9386,
            10.0638,
            10.2031,
            10.3233,
            10.4555,
            10.5818,
            10.71,
            10.8383,
            10.9665,
            11.0968,
            11.227,
            11.3571,
            11.4871,
            11.6191,
            11.7431,
            11.8831,
            12.0022
          ],
          [
            0.05537,
            0.05674,
            0.05821,
            0.06127,
            0.06748,
            0.07925,
            0.10265,
            0.15367,
            0.26332,
            0.38786,
            0.51504,
            0.643,
            0.77172,
            0.90066,
            1.02951,
            1.15803,
            1.28807,
            1.41725,
            1.54667,
            1.67603,
            1.8035,
            1.9326,
            2.0626,
            2.1914,
            2.3198,
            2.4494,
            2.5796,
            2.7069,
            2.8372,
            2.9662,
            3.0948,
            3.2239,
            3.3522,
            3.4839,
            3.6118,
            3.741,
            3.869,
            4.0004,
            4.1278,
            4.2571,
            4.3844,
            4.5135,
            4.6426,
            4.7725,
            4.902,
            5.0307,
            5.1594,
            5.2886,
            5.4179,
            5.5479,
            5.6788,
            5.806,
            5.934,
            6.0673,
            6.1945,
            6.3227,
            6.4495,
            6.578,
            6.7065,
            6.8369,
            6.9701,
            7.0969,
            7.2231,
            7.3549,
            7.4828,
            7.6133,
            7.7424,
            7.8746,
            8.0027,
            8.1279,
            8.2571,
            8.3883,
            8.5225,
            8.6457,
            8.7799,
            8.9081,
            9.0333,
            9.1645,
            9.2908,
            9.419,
            9.5492,
            9.6815,
            9.8057,
            9.935,
            10.069,
            10.1989,
            10.3289,
            10.4579,
            10.5858,
            10.7138,
            10.8418,
            10.9699,
            11.0979,
            11.223,
            11.358,
            11.4871,
            11.6142,
            11.7433,
            11.8724,
            12.0015
          ],
          [
            0.07801,
            0.07914,
            0.08047,
            0.08338,
            0.08963,
            0.10151,
            0.12399,
            0.1713,
            0.2763,
            0.3974,
            0.5223,
            0.6481,
            0.7756,
            0.903,
            1.0313,
            1.1594,
            1.2881,
            1.418,
            1.5455,
            1.6763,
            1.8038,
            1.9326,
            2.0618,
            2.1911,
            2.3204,
            2.4506,
            2.5809,
            2.7089,
            2.8372,
            2.9652,
            3.0955,
            3.2233,
            3.3518,
            3.4849,
            3.6144,
            3.7391,
            3.8692,
            3.9973,
            4.1272,
            4.2559,
            4.3887,
            4.5158,
            4.6434,
            4.7739,
            4.9031,
            5.0314,
            5.161,
            5.2898,
            5.4178,
            5.5455,
            5.6766,
            5.8064,
            5.9355,
            6.0633,
            6.1912,
            6.3226,
            6.4522,
            6.581,
            6.71,
            6.839,
            6.9682,
            7.0973,
            7.2256,
            7.3539,
            7.4849,
            7.6119,
            7.7429,
            7.872,
            8.0,
            8.1302,
            8.2573,
            8.3943,
            8.5144,
            8.6505,
            8.7736,
            8.9038,
            9.0309,
            9.1621,
            9.2972,
            9.4254,
            9.5516,
            9.6808,
            9.806,
            9.9352,
            10.0644,
            10.1946,
            10.3238,
            10.4521,
            10.5794,
            10.7087,
            10.8359,
            10.9672,
            11.1065,
            11.2328,
            11.3578,
            11.4868,
            11.6266,
            11.7427,
            11.8728,
            12.0028
          ],
          [
            0.0976,
            0.0986,
            0.0997,
            0.1024,
            0.1086,
            0.121,
            0.1437,
            0.1888,
            0.291,
            0.411,
            0.5342,
            0.6584,
            0.7849,
            0.9114,
            1.0378,
            1.1647,
            1.2933,
            1.4207,
            1.5482,
            1.6775,
            1.805,
            1.9353,
            2.0627,
            2.1909,
            2.3208,
            2.4487,
            2.5793,
            2.7072,
            2.8363,
            2.968,
            3.0951,
            3.223,
            3.3526,
            3.4834,
            3.6107,
            3.7407,
            3.8688,
            3.9991,
            4.1263,
            4.2591,
            4.3866,
            4.5147,
            4.645,
            4.7727,
            4.9008,
            5.0305,
            5.1622,
            5.2916,
            5.4199,
            5.55,
            5.6755,
            5.8063,
            5.9335,
            6.0642,
            6.192,
            6.3212,
            6.4498,
            6.5792,
            6.7068,
            6.8387,
            6.9672,
            7.0964,
            7.2236,
            7.3557,
            7.4829,
            7.6121,
            7.7397,
            7.874,
            8.0001,
            8.1284,
            8.2585,
            8.3871,
            8.5159,
            8.6429,
            8.7777,
            8.9029,
            9.0301,
            9.1622,
            9.2924,
            9.4215,
            9.5476,
            9.6777,
            9.8069,
            9.936,
            10.0652,
            10.1944,
            10.3235,
            10.4527,
            10.5788,
            10.711,
            10.8461,
            10.9702,
            11.0995,
            11.2247,
            11.3579,
            11.4837,
            11.6156,
            11.7446,
            11.8738,
            12.011
          ],
          [
            0.144,
            0.1446,
            0.1455,
            0.1475,
            0.1535,
            0.1663,
            0.1908,
            0.2354,
            0.3304,
            0.4472,
            0.5695,
            0.6952,
            0.8213,
            0.9478,
            1.0724,
            1.1983,
            1.3244,
            1.4502,
            1.5773,
            1.7046,
            1.8295,
            1.9565,
            2.082,
            2.2098,
            2.3403,
            2.4639,
            2.5909,
            2.7187,
            2.8463,
            2.9746,
            3.1037,
            3.2301,
            3.3584,
            3.487,
            3.6142,
            3.7481,
            3.8748,
            4.0015,
            4.1283,
            4.2575,
            4.3883,
            4.514,
            4.6439,
            4.7717,
            4.9009,
            5.0294,
            5.1598,
            5.2893,
            5.4196,
            5.5479,
            5.6745,
            5.8026,
            5.934,
            6.0672,
            6.1913,
            6.3216,
            6.4508,
            6.5791,
            6.7085,
            6.8398,
            6.967,
            7.0974,
            7.2277,
            7.356,
            7.4862,
            7.6114,
            7.7447,
            7.8769,
            8.0032,
            8.1354,
            8.2588,
            8.3929,
            8.5161,
            8.6434,
            8.7767,
            8.9099,
            9.0292,
            9.1675,
            9.2948,
            9.4256,
            9.5448,
            9.678,
            9.8092,
            9.9384,
            10.0676,
            10.1968,
            10.3251,
            10.4543,
            10.5826,
            10.7119,
            10.8401,
            10.9684,
            11.0977,
            11.2261,
            11.36,
            11.4825,
            11.6118,
            11.7422,
            11.8748,
            11.9992
          ],
          [
            0.1655,
            0.1658,
            0.1665,
            0.1685,
            0.174,
            0.1871,
            0.2123,
            0.2574,
            0.3504,
            0.465,
            0.5865,
            0.712,
            0.838,
            0.9654,
            1.0932,
            1.2195,
            1.3445,
            1.4709,
            1.5979,
            1.7234,
            1.8492,
            1.9751,
            2.1019,
            2.2292,
            2.354,
            2.4813,
            2.6102,
            2.7338,
            2.8607,
            2.9916,
            3.1168,
            3.2413,
            3.3696,
            3.4969,
            3.6229,
            3.7533,
            3.8824,
            4.0082,
            4.1354,
            4.2661,
            4.3922,
            4.5193,
            4.6481,
            4.7766,
            4.9058,
            5.0342,
            5.1615,
            5.2943,
            5.4191,
            5.5514,
            5.6773,
            5.8096,
            5.9338,
            6.0659,
            6.1938,
            6.321,
            6.4503,
            6.5786,
            6.7078,
            6.8361,
            6.9684,
            7.1017,
            7.2229,
            7.3518,
            7.4799,
            7.6112,
            7.7386,
            7.8721,
            7.9993,
            8.1294,
            8.2567,
            8.3859,
            8.5131,
            8.6524,
            8.7727,
            8.903,
            9.0333,
            9.1617,
            9.292,
            9.4222,
            9.5535,
            9.6767,
            9.805,
            9.9343,
            10.0645,
            10.1997,
            10.3319,
            10.4602,
            10.5885,
            10.7147,
            10.8368,
            10.969,
            11.0952,
            11.2274,
            11.3564,
            11.4847,
            11.6119,
            11.7433,
            11.8686,
            12.0059
          ],
          [
            0.1856,
            0.186,
            0.1866,
            0.1883,
            0.1934,
            0.2065,
            0.2324,
            0.2785,
            0.3704,
            0.4827,
            0.6032,
            0.7272,
            0.8541,
            0.9825,
            1.1103,
            1.2374,
            1.3643,
            1.4911,
            1.6185,
            1.7436,
            1.8693,
            1.9971,
            2.123,
            2.2478,
            2.3744,
            2.5003,
            2.6273,
            2.7536,
            2.879,
            3.0082,
            3.133,
            3.2618,
            3.3857,
            3.5113,
            3.6435,
            3.7703,
            3.8924,
            4.022,
            4.152,
            4.275,
            4.4025,
            4.5295,
            4.6603,
            4.7857,
            4.9164,
            5.0395,
            5.1718,
            5.2984,
            5.4239,
            5.5518,
            5.6814,
            5.8081,
            5.9379,
            6.0667,
            6.1956,
            6.3225,
            6.4544,
            6.5814,
            6.7104,
            6.8415,
            6.9685,
            7.1017,
            7.2239,
            7.3519,
            7.482,
            7.6112,
            7.7393,
            7.8696,
            8.0028,
            8.1301,
            8.2564,
            8.3847,
            8.5129,
            8.6412,
            8.7705,
            8.9028,
            9.0321,
            9.1663,
            9.2875,
            9.4217,
            9.543,
            9.6822,
            9.8055,
            9.9318,
            10.0631,
            10.1944,
            10.3277,
            10.4519,
            10.5801,
            10.7103,
            10.8426,
            10.9698,
            11.0941,
            11.2274,
            11.3567,
            11.4879,
            11.6162,
            11.7464,
            11.8767,
            12.0079
          ],
          [
            0.2085,
            0.2089,
            0.2093,
            0.2109,
            0.2157,
            0.2286,
            0.2553,
            0.3026,
            0.3941,
            0.5035,
            0.6222,
            0.7462,
            0.8729,
            1.0014,
            1.1295,
            1.2599,
            1.3874,
            1.5143,
            1.6419,
            1.7689,
            1.8974,
            2.0218,
            2.1481,
            2.2745,
            2.3998,
            2.5261,
            2.651,
            2.7775,
            2.9043,
            3.0305,
            3.1566,
            3.2842,
            3.409,
            3.5349,
            3.665,
            3.7881,
            3.9165,
            4.0432,
            4.1672,
            4.2933,
            4.423,
            4.5538,
            4.6786,
            4.801,
            4.931,
            5.0549,
            5.1839,
            5.3139,
            5.443,
            5.5651,
            5.6953,
            5.8256,
            5.95,
            6.0774,
            6.2027,
            6.332,
            6.4607,
            6.5912,
            6.7188,
            6.8444,
            6.9741,
            7.0998,
            7.2305,
            7.3562,
            7.487,
            7.6159,
            7.7418,
            7.8767,
            8.0016,
            8.1336,
            8.2572,
            8.3896,
            8.5155,
            8.6459,
            8.777,
            8.9022,
            9.0364,
            9.1576,
            9.2868,
            9.416,
            9.5442,
            9.6745,
            9.8097,
            9.938,
            10.0652,
            10.1925,
            10.3298,
            10.457,
            10.5773,
            10.7096,
            10.8359,
            10.9671,
            11.0923,
            11.2246,
            11.3548,
            11.4841,
            11.6134,
            11.7497,
            11.8719,
            12.005
          ],
          [
            0.2375,
            0.2379,
            0.2383,
            0.2397,
            0.244,
            0.2566,
            0.284,
            0.333,
            0.4245,
            0.5317,
            0.648,
            0.7709,
            0.8966,
            1.0256,
            1.1536,
            1.2841,
            1.4149,
            1.5433,
            1.6719,
            1.8004,
            1.9303,
            2.0572,
            2.182,
            2.3099,
            2.4361,
            2.5608,
            2.6879,
            2.8141,
            2.9394,
            3.0645,
            3.191,
            3.3161,
            3.4419,
            3.5681,
            3.6938,
            3.8201,
            3.9477,
            4.0755,
            4.1992,
            4.3263,
            4.4534,
            4.5826,
            4.706,
            4.8312,
            4.9586,
            5.084,
            5.2105,
            5.337,
            5.4624,
            5.5921,
            5.7198,
            5.8444,
            5.9692,
            6.1,
            6.23,
            6.3518,
            6.4796,
            6.6036,
            6.7337,
            6.8598,
            6.9879,
            7.116,
            7.2451,
            7.3754,
            7.4987,
            7.6331,
            7.7614,
            7.8828,
            8.0121,
            8.1397,
            8.2731,
            8.3987,
            8.5223,
            8.6518,
            8.7874,
            8.9081,
            9.0379,
            9.1656,
            9.2953,
            9.4302,
            9.5485,
            9.6838,
            9.8087,
            9.9376,
            10.0654,
            10.1944,
            10.3213,
            10.4533,
            10.5833,
            10.7074,
            10.8405,
            10.9675,
            11.1061,
            11.2222,
            11.3514,
            11.4835,
            11.611,
            11.7402,
            11.867,
            11.9983
          ],
          [
            0.2721,
            0.2722,
            0.2726,
            0.2738,
            0.2778,
            0.2898,
            0.3177,
            0.3689,
            0.4612,
            0.5671,
            0.6809,
            0.8019,
            0.9261,
            1.054,
            1.183,
            1.3126,
            1.4437,
            1.5746,
            1.7043,
            1.8335,
            1.9638,
            2.0925,
            2.2241,
            2.3508,
            2.4801,
            2.6044,
            2.7308,
            2.8572,
            2.9861,
            3.1102,
            3.2366,
            3.3637,
            3.4883,
            3.6148,
            3.7403,
            3.8668,
            3.9943,
            4.1169,
            4.2427,
            4.3684,
            4.4951,
            4.6197,
            4.7454,
            4.8732,
            4.9991,
            5.127,
            5.2499,
            5.3777,
            5.5029,
            5.6339,
            5.7599,
            5.8831,
            6.0093,
            6.1374,
            6.2626,
            6.385,
            6.5134,
            6.6398,
            6.7652,
            6.8958,
            7.0241,
            7.1509,
            7.2765,
            7.3991,
            7.5298,
            7.6595,
            7.7883,
            7.9141,
            8.0369,
            8.1627,
            8.2895,
            8.4175,
            8.5455,
            8.6726,
            8.8037,
            8.9289,
            9.061,
            9.1912,
            9.3104,
            9.4446,
            9.5769,
            9.6981,
            9.8244,
            9.9508,
            10.0792,
            10.2187,
            10.3382,
            10.4627,
            10.5922,
            10.7248,
            10.8454,
            10.974,
            11.1056,
            11.2332,
            11.3629,
            11.4995,
            11.6192,
            11.747,
            11.8719,
            12.0157
          ],
          [
            0.3174,
            0.3177,
            0.3179,
            0.3192,
            0.3225,
            0.3339,
            0.3622,
            0.4159,
            0.5109,
            0.6157,
            0.727,
            0.8453,
            0.9685,
            1.0937,
            1.222,
            1.3521,
            1.4822,
            1.6137,
            1.7459,
            1.8771,
            2.0084,
            2.1395,
            2.27,
            2.4024,
            2.532,
            2.6615,
            2.7898,
            2.9171,
            3.0424,
            3.1696,
            3.2989,
            3.4251,
            3.5503,
            3.6795,
            3.8046,
            3.9318,
            4.0559,
            4.1831,
            4.3093,
            4.4324,
            4.5585,
            4.6847,
            4.8121,
            4.9365,
            5.0618,
            5.1881,
            5.3154,
            5.4379,
            5.5632,
            5.6898,
            5.8163,
            5.9427,
            6.0671,
            6.1957,
            6.3192,
            6.4489,
            6.5736,
            6.6973,
            6.8251,
            6.949,
            7.079,
            7.2088,
            7.3337,
            7.4567,
            7.5788,
            7.7099,
            7.837,
            7.9642,
            8.0863,
            8.2095,
            8.3386,
            8.464,
            8.5904,
            8.7208,
            8.8492,
            8.9776,
            9.1021,
            9.2305,
            9.3529,
            9.4756,
            9.6083,
            9.7399,
            9.8686,
            9.9953,
            10.1181,
            10.242,
            10.369,
            10.493,
            10.622,
            10.75,
            10.876,
            11.011,
            11.132,
            11.26,
            11.387,
            11.526,
            11.645,
            11.783,
            11.905,
            12.028
          ],
          [
            0.3545,
            0.3547,
            0.3552,
            0.3562,
            0.3593,
            0.3703,
            0.3985,
            0.4545,
            0.5519,
            0.6559,
            0.7665,
            0.883,
            1.0046,
            1.1288,
            1.2556,
            1.3853,
            1.5163,
            1.6474,
            1.7784,
            1.9108,
            2.0436,
            2.1747,
            2.3069,
            2.4381,
            2.5693,
            2.7026,
            2.8329,
            2.963,
            3.0921,
            3.2212,
            3.3462,
            3.4793,
            3.6033,
            3.7323,
            3.8582,
            3.9831,
            4.112,
            4.241,
            4.3659,
            4.4889,
            4.6188,
            4.7417,
            4.8666,
            4.9934,
            5.1204,
            5.2465,
            5.3695,
            5.4966,
            5.6197,
            5.747,
            5.872,
            5.996,
            6.126,
            6.25,
            6.376,
            6.499,
            6.625,
            6.751,
            6.878,
            7.004,
            7.129,
            7.256,
            7.383,
            7.505,
            7.636,
            7.761,
            7.884,
            8.011,
            8.137,
            8.26,
            8.392,
            8.522,
            8.648,
            8.771,
            8.892,
            9.02,
            9.15,
            9.278,
            9.403,
            9.527,
            9.648,
            9.776,
            9.904,
            10.029,
            10.153,
            10.285,
            10.416,
            10.544,
            10.669,
            10.794,
            10.922,
            11.043,
            11.167,
            11.297,
            11.43,
            11.559,
            11.687,
            11.814,
            11.932,
            12.06
          ],
          [
            0.4017,
            0.4027,
            0.4027,
            0.4038,
            0.4064,
            0.4167,
            0.4451,
            0.5026,
            0.605,
            0.709,
            0.819,
            0.934,
            1.053,
            1.177,
            1.302,
            1.429,
            1.56,
            1.69,
            1.823,
            1.954,
            2.087,
            2.219,
            2.353,
            2.484,
            2.618,
            2.749,
            2.881,
            3.014,
            3.147,
            3.275,
            3.406,
            3.537,
            3.666,
            3.794,
            3.92,
            4.05,
            4.178,
            4.305,
            4.432,
            4.56,
            4.688,
            4.813,
            4.943,
            5.069,
            5.198,
            5.32,
            5.445,
            5.571,
            5.696,
            5.823,
            5.95,
            6.074,
            6.202,
            6.326,
            6.452,
            6.578,
            6.701,
            6.83,
            6.956,
            7.079,
            7.205,
            7.33,
            7.461,
            7.584,
            7.707,
            7.829,
            7.955,
            8.082,
            8.21,
            8.335,
            8.46,
            8.586,
            8.712,
            8.84,
            8.963,
            9.089,
            9.218,
            9.344,
            9.468,
            9.592,
            9.72,
            9.845,
            9.968,
            10.099,
            10.23,
            10.358,
            10.482,
            10.605,
            10.728,
            10.85,
            10.983,
            11.112,
            11.239,
            11.365,
            11.488,
            11.61,
            11.736,
            11.864,
            11.99,
            12.115
          ]
        ]
      },
      "timing_sense": "positive_unate"
    }
  }
}